t / s;I / A
0.009000;0.006345
0.047000;0.004755
0.086000;0.004755
0.123000;0.005550
0.161000;0.006345
0.200000;0.006345
0.238000;0.007125
0.276000;0.006345
0.314000;0.007125
0.352000;0.007125
0.391000;0.006345
0.429000;0.008715
0.467000;0.007920
0.505000;0.008715
0.543000;0.007920
0.581000;0.007920
0.619000;0.007920
0.657000;0.009510
0.695000;0.007920
0.733000;0.007920
0.771000;0.007920
0.809000;0.007920
0.847000;0.008715
0.886000;0.009510
0.924000;0.008715
0.962000;0.007125
1.000000;0.007920
1.038000;0.007920
1.076000;0.008715
1.114000;0.007920
1.152000;0.009510
1.190000;0.008715
1.228000;0.010305
1.266000;0.008715
1.304000;0.008715
1.342000;0.009510
1.380000;0.009510
1.418000;0.009510
1.456000;0.011085
1.494000;0.009510
1.532000;0.010305
1.570000;0.010305
1.608000;0.011085
1.647000;0.010305
1.685000;0.008715
1.723000;0.011085
1.761000;0.009510
1.799000;0.010305
1.837000;0.008715
1.875000;0.011085
1.913000;0.011085
1.951000;0.010305
1.989000;0.010305
2.027000;0.010305
2.065000;0.009510
2.103000;0.009510
2.141000;0.010305
2.179000;0.009510
2.217000;0.010305
2.255000;0.010305
2.293000;0.010305
2.331000;0.010305
2.369000;0.011085
2.408000;0.010305
2.446000;0.011085
2.484000;0.009510
2.522000;0.011880
2.560000;0.011880
2.598000;0.011085
2.636000;0.010305
2.674000;0.009510
2.712000;0.010305
2.750000;0.009510
2.788000;0.009510
2.826000;0.011880
2.864000;0.010305
2.903000;0.010305
2.941000;0.011085
2.979000;0.009510
3.017000;0.010305
3.055000;0.010305
3.093000;0.010305
3.131000;0.010305
3.169000;0.009510
3.207000;0.010305
3.245000;0.010305
3.283000;0.011085
3.321000;0.011085
3.359000;0.010305
3.397000;0.010305
3.435000;0.011085
3.473000;0.009510
3.511000;0.010305
3.549000;0.010305
3.588000;0.008715
3.626000;0.010305
3.664000;0.008715
3.702000;0.009510
3.740000;0.010305
3.778000;0.010305
3.816000;0.010305
3.854000;0.010305
3.892000;0.012675
3.930000;0.011085
3.968000;0.011085
4.006000;0.010305
4.044000;0.009510
4.082000;0.010305
4.120000;0.010305
4.158000;0.010305
4.196000;0.011085
4.235000;0.011085
4.273000;0.011085
4.311000;0.011085
4.349000;0.010305
4.387000;0.008715
4.425000;0.009510
4.463000;0.010305
4.501000;0.011085
4.539000;0.011085
4.577000;0.011085
4.615000;0.011085
4.653000;0.010305
4.691000;0.009510
4.729000;0.011880
4.767000;0.011085
4.805000;0.010305
4.843000;0.010305
4.882000;0.009510
4.920000;0.011085
4.958000;0.010305
4.996000;0.010305
5.034000;0.011085
5.072000;0.010305
5.110000;0.010305
5.148000;0.011085
5.186000;0.011085
5.224000;0.010305
5.262000;0.008715
5.300000;0.011085
5.338000;0.011085
5.376000;0.011085
5.414000;0.010305
5.452000;0.011085
5.490000;0.010305
5.529000;0.010305
5.567000;0.011085
5.605000;0.011880
5.643000;0.009510
5.681000;0.011085
5.719000;0.011085
5.757000;0.010305
5.795000;0.011880
5.833000;0.011085
5.871000;0.011880
5.909000;0.011880
5.947000;0.010305
5.985000;0.011085
6.023000;0.011085
6.062000;0.010305
6.100000;0.011880
6.138000;0.012675
6.176000;0.011880
6.214000;0.012675
6.252000;0.011085
6.290000;0.011085
6.328000;0.011880
6.366000;0.011085
6.404000;0.011880
6.442000;0.011880
6.480000;0.011085
6.518000;0.011880
6.556000;0.013470
6.594000;0.011880
6.632000;0.012675
6.670000;0.011085
6.708000;0.011085
6.746000;0.011880
6.785000;0.011880
6.823000;0.012675
6.861000;0.011085
6.899000;0.011880
6.937000;0.011880
6.975000;0.011880
7.013000;0.010305
7.051000;0.011880
7.089000;0.011880
7.127000;0.011085
7.165000;0.011880
7.203000;0.011085
7.241000;0.011880
7.279000;0.011085
7.317000;0.011085
7.355000;0.009510
7.393000;0.011085
7.432000;0.008715
7.470000;0.011085
7.508000;0.011085
7.546000;0.010305
7.584000;0.011085
7.622000;0.010305
7.660000;0.011085
7.698000;0.011085
7.736000;0.010305
7.774000;0.009510
7.812000;0.011085
7.850000;0.011085
7.888000;0.010305
7.926000;0.011085
7.964000;0.010305
8.002000;0.011085
8.040000;0.011880
8.078000;0.011085
8.116000;0.011085
8.154000;0.011085
8.192000;0.010305
8.230000;0.009510
8.269000;0.011880
8.307000;0.011880
8.345000;0.011085
8.383000;0.011085
8.421000;0.010305
8.459000;0.012675
8.497000;0.012675
8.535000;0.011880
8.573000;0.012675
8.611000;0.011880
8.649000;0.011085
8.687000;0.011880
8.725000;0.011880
8.763000;0.011880
8.801000;0.013470
8.839000;0.011880
8.877000;0.011085
8.915000;0.011880
8.953000;0.011880
8.992000;0.010305
9.030000;0.011085
9.068000;0.011880
9.106000;0.012675
9.144000;0.011085
9.182000;0.011880
9.220000;0.011085
9.258000;0.011880
9.296000;0.011085
9.334000;0.011880
9.372000;0.010305
9.410000;0.010305
9.448000;0.011880
9.486000;0.011880
9.524000;0.011880
9.562000;0.011085
9.600000;0.011085
9.638000;0.011085
9.677000;0.011880
9.715000;0.011085
9.753000;0.010305
9.791000;0.012675
9.829000;0.010305
9.867000;0.011085
9.905000;0.009510
9.943000;0.010305
9.981000;0.011085
10.019000;0.010305
10.058000;0.010305
10.096000;0.011085
10.134000;0.011085
10.172000;0.010305
10.210000;0.011085
10.248000;0.009510
10.286000;0.011085
10.324000;0.011880
10.362000;0.011085
10.400000;0.010305
10.438000;0.011085
10.476000;0.010305
10.515000;0.011085
10.553000;0.011085
10.591000;0.011085
10.629000;0.011085
10.667000;0.010305
10.705000;0.010305
10.743000;0.011085
10.781000;0.011880
10.819000;0.012675
10.857000;0.011085
10.895000;0.010305
10.933000;0.012675
10.971000;0.011085
11.009000;0.011085
11.047000;0.011085
11.085000;0.011085
11.123000;0.009510
11.161000;0.010305
11.199000;0.010305
11.237000;0.011880
11.276000;0.011085
11.314000;0.011085
11.352000;0.010305
11.390000;0.011880
11.428000;0.011880
11.466000;0.010305
11.504000;0.010305
11.542000;0.010305
11.580000;0.011085
11.618000;0.011085
11.656000;0.011085
11.694000;0.010305
11.732000;0.010305
11.770000;0.009510
11.808000;0.011085
11.847000;0.011085
11.885000;0.011085
11.923000;0.010305
11.961000;0.011085
11.999000;0.011085
12.037000;0.011085
12.075000;0.011880
12.113000;0.011085
12.151000;0.011880
12.189000;0.011085
12.227000;0.011880
12.265000;0.012675
12.303000;0.011085
12.341000;0.011085
12.379000;0.011880
12.417000;0.011880
12.455000;0.012675
12.493000;0.011085
12.531000;0.011085
12.570000;0.011085
12.608000;0.011085
12.646000;0.011085
12.684000;0.011880
12.722000;0.011085
12.760000;0.011085
12.798000;0.011085
12.836000;0.010305
12.874000;0.010305
12.912000;0.011085
12.950000;0.011085
12.988000;0.011085
13.026000;0.010305
13.064000;0.011085
13.103000;0.011880
13.141000;0.011880
13.179000;0.011085
13.217000;0.011085
13.255000;0.011085
13.293000;0.012675
13.331000;0.012675
13.369000;0.011880
13.407000;0.011085
13.445000;0.011880
13.483000;0.011880
13.521000;0.011085
13.559000;0.011880
13.597000;0.011085
13.635000;0.011085
13.673000;0.012675
13.711000;0.011085
13.749000;0.012675
13.787000;0.010305
13.825000;0.011880
13.863000;0.011880
13.901000;0.011880
13.939000;0.012675
13.978000;0.011085
14.016000;0.011880
14.054000;0.010305
14.092000;0.011880
14.130000;0.010305
14.168000;0.009510
14.206000;0.010305
14.244000;0.010305
14.282000;0.011880
14.320000;0.011880
14.358000;0.011880
14.396000;0.011880
14.434000;0.011085
14.472000;0.010305
14.510000;0.011085
14.548000;0.010305
14.586000;0.010305
14.624000;0.010305
14.662000;0.008715
14.701000;0.011085
14.739000;0.010305
14.777000;0.011085
14.815000;0.010305
14.853000;0.010305
14.891000;0.011085
14.929000;0.009510
14.967000;0.009510
15.005000;0.010305
15.043000;0.011085
15.082000;0.010305
15.120000;0.011085
15.158000;0.010305
15.196000;0.010305
15.234000;0.010305
15.272000;0.010305
15.310000;0.010305
15.348000;0.011085
15.386000;0.010305
15.424000;0.011880
15.462000;0.011085
15.500000;0.011085
15.538000;0.010305
15.576000;0.011085
15.614000;0.011085
15.652000;0.011085
15.691000;0.011880
15.729000;0.011085
15.767000;0.011085
15.805000;0.011085
15.843000;0.010305
15.881000;0.011085
15.919000;0.011085
15.957000;0.011085
15.995000;0.012675
16.033000;0.011085
16.071000;0.011880
16.109000;0.012675
16.148000;0.012675
16.186000;0.011085
16.224000;0.011085
16.262000;0.011085
16.300000;0.011085
16.338000;0.011085
16.376000;0.011085
16.414000;0.011085
16.452000;0.011085
16.490000;0.011085
16.528000;0.011085
16.566000;0.011085
16.604000;0.011085
16.642000;0.009510
16.680000;0.011085
16.718000;0.011085
16.756000;0.011085
16.794000;0.009510
16.832000;0.011085
16.870000;0.010305
16.908000;0.011880
16.947000;0.011085
16.985000;0.011085
17.023000;0.010305
17.061000;0.011880
17.099000;0.011880
17.137000;0.011085
17.175000;0.011085
17.213000;0.010305
17.251000;0.010305
17.289000;0.011085
17.327000;0.011085
17.365000;0.010305
17.403000;0.011880
17.441000;0.010305
17.480000;0.034859
17.518000;0.032474
17.556000;0.110906
17.594000;7.603476
17.632000;10.692253
17.670000;10.224060
17.708000;9.862033
17.746000;9.710719
17.784000;9.683780
17.822000;9.687754
17.860000;9.679040
17.898000;9.641001
17.936000;9.642591
17.974000;9.660815
18.012000;9.659226
18.050000;9.663185
18.088000;9.678245
18.126000;9.703594
18.164000;9.737658
18.202000;9.771721
18.241000;9.806580
18.279000;9.838259
18.317000;9.873118
18.355000;9.903222
18.393000;9.937285
18.431000;9.964224
18.469000;9.982449
18.507000;9.992738
18.545000;9.993533
18.583000;9.991943
18.621000;9.987983
18.659000;9.987983
18.697000;9.987983
18.735000;9.985614
18.774000;9.986408
18.812000;9.987203
18.850000;9.987203
18.888000;9.987203
18.926000;9.987203
18.964000;9.985614
19.002000;9.987203
19.040000;9.987203
19.078000;9.985614
19.117000;9.985614
19.155000;9.988778
19.193000;9.987203
19.231000;9.986408
19.269000;9.986408
19.307000;9.984819
19.345000;9.985614
19.383000;9.986408
19.421000;9.985614
19.459000;9.987203
19.497000;9.986408
19.535000;9.986408
19.573000;9.985614
19.611000;9.984819
19.649000;9.985614
19.687000;9.987203
19.725000;9.986408
19.764000;9.987983
19.801000;9.988778
19.839000;9.987983
19.878000;9.987983
19.916000;9.987983
19.954000;9.987983
19.992000;9.985614
20.030000;9.986408
20.068000;9.986408
20.106000;9.986408
20.144000;9.987203
20.182000;9.985614
20.220000;9.985614
20.258000;9.984819
20.296000;9.987983
20.334000;9.985614
20.373000;9.985614
20.411000;9.985614
20.449000;9.987203
20.487000;9.987203
20.525000;9.985614
20.563000;9.985614
20.601000;9.987203
20.639000;9.984819
20.677000;9.985614
20.715000;9.986408
20.753000;9.986408
20.791000;9.984819
20.830000;9.987203
20.868000;9.986408
20.906000;9.987983
20.944000;9.987203
20.982000;9.988778
21.020000;9.987983
21.058000;9.988778
21.096000;9.987203
21.134000;9.987203
21.172000;9.988778
21.210000;9.987983
21.248000;9.987983
21.286000;9.987983
21.324000;9.987203
21.362000;9.986408
21.400000;9.987203
21.439000;9.987203
21.477000;9.985614
21.515000;9.987203
21.553000;9.986408
21.591000;9.985614
21.629000;9.985614
21.667000;9.987203
21.705000;9.986408
21.743000;9.987203
21.781000;9.987203
21.819000;9.986408
21.857000;9.986408
21.895000;9.986408
21.934000;9.984819
21.972000;9.987203
22.010000;9.984819
22.048000;9.987203
22.086000;9.986408
22.124000;9.986408
22.162000;9.988778
22.200000;9.987203
22.238000;9.985614
22.276000;9.987983
22.314000;9.987203
22.352000;9.987983
22.390000;9.987203
22.428000;9.986408
22.466000;9.984819
22.504000;9.366121
22.543000;-9.824009
22.581000;-10.043436
22.619000;-10.050576
22.657000;-10.040272
22.695000;-10.021267
22.733000;-10.002248
22.771000;-9.984024
22.809000;-9.974529
22.847000;-9.972939
22.885000;-9.974529
22.923000;-9.977694
22.961000;-9.979269
22.999000;-9.976104
23.037000;-9.979269
23.076000;-9.978489
23.114000;-9.977694
23.152000;-9.980859
23.190000;-9.979269
23.228000;-9.979269
23.266000;-9.977694
23.304000;-9.979269
23.342000;-9.980064
23.380000;-9.979269
23.418000;-9.979269
23.456000;-9.980064
23.494000;-9.979269
23.533000;-9.978489
23.571000;-9.978489
23.609000;-9.977694
23.647000;-9.980859
23.685000;-9.980064
23.723000;-9.979269
23.761000;-9.978489
23.799000;-9.979269
23.837000;-9.979269
23.876000;-9.979269
23.914000;-9.978489
23.952000;-9.979269
23.990000;-9.979269
24.028000;-9.978489
24.066000;-9.977694
24.104000;-9.978489
24.142000;-9.978489
24.180000;-9.979269
24.218000;-9.978489
24.256000;-9.977694
24.294000;-9.978489
24.332000;-9.980064
24.371000;-9.980064
24.409000;-9.980064
24.447000;-9.977694
24.485000;-9.977694
24.523000;-9.979269
24.561000;-9.979269
24.599000;-9.977694
24.637000;-9.977694
24.675000;-9.978489
24.713000;-9.977694
24.751000;-9.980064
24.789000;-9.977694
24.827000;-9.976899
24.866000;-9.978489
24.904000;-9.979269
24.942000;-9.979269
24.980000;-9.980064
25.018000;-9.977694
25.056000;-9.977694
25.094000;-9.979269
25.133000;-9.980064
25.171000;-9.978489
25.209000;-9.978489
25.247000;-9.979269
25.285000;-9.978489
25.323000;-9.980859
25.361000;-9.976899
25.399000;-9.979269
25.437000;-9.979269
25.476000;-9.976104
25.514000;-9.976899
25.552000;-9.978489
25.590000;-9.976899
25.628000;-9.976104
25.666000;-9.978489
25.704000;-9.976104
25.742000;-9.976899
25.780000;-9.977694
25.818000;-9.977694
25.856000;-9.977694
25.894000;-9.977694
25.932000;-9.979269
25.971000;-9.977694
26.009000;-9.976899
26.047000;-9.976104
26.085000;-9.977694
26.123000;-9.977694
26.161000;-9.979269
26.199000;-9.979269
26.237000;-9.980064
26.276000;-9.977694
26.314000;-9.977694
26.354000;-9.976104
26.392000;-9.977694
26.430000;-9.977694
26.468000;-9.978489
26.506000;-9.979269
26.544000;-9.978489
26.582000;-9.980064
26.620000;-9.977694
26.658000;-9.977694
26.696000;-9.976899
26.734000;-9.977694
26.772000;-9.977694
26.810000;-9.979269
26.848000;-9.979269
26.886000;-9.976899
26.924000;-9.978489
26.962000;-9.977694
27.000000;-9.979269
27.039000;-9.978489
27.077000;-9.979269
27.115000;-9.976899
27.153000;-9.977694
27.191000;-9.978489
27.229000;-9.978489
27.267000;-9.976104
27.305000;-9.977694
27.343000;-9.977694
27.381000;-9.976104
27.419000;-9.977694
27.457000;-9.979269
27.495000;-0.705049
27.534000;18.882747
27.572000;20.196204
27.610000;20.102727
27.648000;20.059154
27.686000;20.031435
27.724000;20.001331
27.762000;19.977557
27.800000;19.965677
27.838000;19.963307
27.876000;19.968062
27.914000;19.969637
27.952000;19.973597
27.990000;19.974392
28.029000;19.972022
28.067000;19.972802
28.105000;19.972022
28.143000;19.974392
28.181000;19.970432
28.219000;19.972022
28.257000;19.973597
28.295000;19.972802
28.333000;19.971227
28.371000;19.970432
28.410000;19.972022
28.448000;19.972022
28.486000;19.972022
28.524000;19.971227
28.562000;19.972802
28.600000;19.971227
28.638000;19.973597
28.676000;19.974392
28.714000;19.973597
28.752000;19.972802
28.790000;19.973597
28.828000;19.972022
28.866000;19.974392
28.904000;19.973597
28.942000;19.972802
28.981000;19.974392
29.019000;19.972802
29.057000;19.973597
29.095000;19.972802
29.133000;19.972022
29.171000;19.972802
29.209000;19.973597
29.247000;19.973597
29.285000;19.972022
29.323000;19.971227
29.361000;19.972802
29.399000;19.970432
29.438000;19.969637
29.476000;19.972022
29.514000;19.973597
29.552000;19.972022
29.590000;19.971227
29.628000;19.970432
29.666000;19.970432
29.704000;19.970432
29.742000;19.971227
29.780000;19.970432
29.818000;19.972802
29.856000;19.969637
29.895000;19.972802
29.932000;19.972802
29.970000;19.973597
30.008000;19.971227
30.047000;19.971227
30.085000;19.973597
30.123000;19.973597
30.161000;19.972022
30.199000;19.972022
30.237000;19.972022
30.275000;19.972022
30.313000;19.972022
30.351000;19.972802
30.389000;19.974392
30.427000;19.974392
30.465000;19.972022
30.503000;19.972022
30.541000;19.972802
30.580000;19.971227
30.618000;19.971227
30.656000;19.971227
30.694000;19.970432
30.732000;19.971227
30.770000;19.974392
30.808000;19.970432
30.846000;19.971227
30.884000;19.970432
30.922000;19.972022
30.960000;19.972802
30.998000;19.971227
31.036000;19.972022
31.074000;19.972022
31.113000;19.973597
31.151000;19.970432
31.189000;19.972802
31.227000;19.975187
31.265000;19.972802
31.303000;19.974392
31.341000;19.974392
31.379000;19.972022
31.417000;19.974392
31.455000;19.972802
31.494000;19.972802
31.532000;19.974392
31.570000;19.972022
31.608000;19.974392
31.646000;19.974392
31.684000;19.972802
31.722000;19.974392
31.760000;19.972802
31.798000;19.972802
31.836000;19.972802
31.874000;19.974392
31.912000;19.974392
31.950000;19.974392
31.988000;19.974392
32.026000;19.972022
32.064000;19.972802
32.102000;19.972802
32.140000;19.973597
32.178000;19.973597
32.217000;19.971227
32.255000;19.972802
32.293000;19.972802
32.331000;19.972802
32.369000;19.973597
32.407000;19.975187
32.445000;19.972802
32.483000;19.972802
32.521000;19.972022
32.559000;-14.395767
32.597000;-20.039385
32.635000;-20.057609
32.673000;-20.048099
32.711000;-20.035425
32.749000;-20.016405
32.787000;-19.999771
32.826000;-19.984727
32.864000;-19.973627
32.902000;-19.968092
32.940000;-19.963337
32.978000;-19.966502
33.016000;-19.969667
33.054000;-19.968872
33.092000;-19.969667
33.130000;-19.969667
33.168000;-19.968872
33.206000;-19.971257
33.244000;-19.968872
33.282000;-19.968872
33.321000;-19.971257
33.359000;-19.968872
33.397000;-19.970462
33.435000;-19.968872
33.473000;-19.968092
33.511000;-19.970462
33.549000;-19.970462
33.587000;-19.969667
33.625000;-19.971257
33.663000;-19.969667
33.701000;-19.968092
33.739000;-19.972832
33.778000;-19.969667
33.816000;-19.970462
33.854000;-19.970462
33.892000;-19.971257
33.930000;-19.969667
33.968000;-19.970462
34.006000;-19.969667
34.044000;-19.969667
34.082000;-19.971257
34.120000;-19.969667
34.158000;-19.972052
34.196000;-19.971257
34.234000;-19.969667
34.272000;-19.968092
34.310000;-19.968872
34.348000;-19.969667
34.386000;-19.968872
34.424000;-19.970462
34.462000;-19.968872
34.501000;-19.969667
34.539000;-19.970462
34.577000;-19.969667
34.615000;-19.970462
34.653000;-19.970462
34.691000;-19.969667
34.729000;-19.968872
34.767000;-19.969667
34.805000;-19.970462
34.843000;-19.970462
34.881000;-19.971257
34.919000;-19.971257
34.957000;-19.969667
34.995000;-19.972052
35.034000;-19.969667
35.072000;-19.969667
35.110000;-19.972052
35.148000;-19.970462
35.186000;-19.970462
35.224000;-19.970462
35.262000;-19.968872
35.300000;-19.971257
35.338000;-19.969667
35.376000;-19.969667
35.414000;-19.969667
35.453000;-19.969667
35.491000;-19.969667
35.529000;-19.969667
35.567000;-19.969667
35.605000;-19.970462
35.643000;-19.971257
35.681000;-19.973627
35.719000;-19.969667
35.757000;-19.968872
35.795000;-19.969667
35.833000;-19.971257
35.871000;-19.968872
35.909000;-19.969667
35.947000;-19.970462
35.986000;-19.968872
36.024000;-19.970462
36.062000;-19.972832
36.100000;-19.972052
36.138000;-19.969667
36.176000;-19.971257
36.214000;-19.971257
36.252000;-19.969667
36.290000;-19.969667
36.328000;-19.970462
36.366000;-19.971257
36.404000;-19.971257
36.442000;-19.970462
36.480000;-19.971257
36.518000;-19.969667
36.556000;-19.969667
36.594000;-19.969667
36.633000;-19.969667
36.671000;-19.971257
36.709000;-19.971257
36.747000;-19.970462
36.785000;-19.970462
36.823000;-19.969667
36.861000;-19.969667
36.899000;-19.971257
36.937000;-19.971257
36.976000;-19.971257
37.014000;-19.972832
37.052000;-19.971257
37.090000;-19.971257
37.128000;-19.971257
37.166000;-19.972052
37.204000;-19.969667
37.242000;-19.970462
37.280000;-19.971257
37.318000;-19.970462
37.357000;-19.971257
37.395000;-19.970462
37.433000;-19.969667
37.471000;-19.972052
37.509000;-12.248115
37.547000;29.024430
37.585000;30.137464
37.623000;30.082791
37.662000;30.053482
37.700000;30.031298
37.738000;30.006744
37.776000;29.979805
37.814000;29.960005
37.852000;29.953676
37.890000;29.950496
37.928000;29.955251
37.966000;29.958416
38.004000;29.960005
38.042000;29.959210
38.080000;29.961595
38.118000;29.959210
38.156000;29.960800
38.194000;29.959210
38.233000;29.958416
38.270000;29.958416
38.308000;29.960005
38.346000;29.960005
38.385000;29.960005
38.423000;29.960005
38.461000;29.958416
38.499000;29.960005
38.537000;29.962375
38.575000;29.960005
38.613000;29.960800
38.651000;29.961595
38.689000;29.962375
38.727000;29.961595
38.765000;29.960005
38.803000;29.961595
38.841000;29.961595
38.879000;29.961595
38.917000;29.963170
38.955000;29.962375
38.994000;29.961595
39.032000;29.961595
39.070000;29.960005
39.108000;29.962375
39.146000;29.963170
39.184000;29.962375
39.222000;29.963170
39.260000;29.961595
39.298000;29.960800
39.336000;29.960800
39.374000;29.961595
39.412000;29.961595
39.450000;29.963965
39.488000;29.960005
39.527000;29.962375
39.565000;29.960800
39.602000;29.962375
39.640000;29.960800
39.679000;29.961595
39.717000;29.960005
39.755000;29.960005
39.793000;29.961595
39.831000;29.961595
39.869000;29.960005
39.907000;29.960005
39.945000;29.960005
39.983000;29.961595
40.021000;29.962375
40.059000;29.963170
40.097000;29.962375
40.135000;29.961595
40.173000;29.962375
40.211000;29.960005
40.250000;29.961595
40.288000;29.960800
40.326000;29.961595
40.364000;29.961595
40.402000;29.963170
40.440000;29.963170
40.478000;29.962375
40.516000;29.963170
40.554000;29.963965
40.592000;29.961595
40.630000;29.961595
40.668000;29.961595
40.706000;29.961595
40.744000;29.960800
40.783000;29.960800
40.821000;29.961595
40.859000;29.960005
40.897000;29.959210
40.935000;29.960800
40.973000;29.961595
41.011000;29.960005
41.049000;29.962375
41.087000;29.961595
41.125000;29.961595
41.163000;29.964760
41.201000;29.960800
41.240000;29.962375
41.278000;29.961595
41.316000;29.961595
41.354000;29.961595
41.392000;29.961595
41.430000;29.961595
41.468000;29.961595
41.506000;29.963170
41.544000;29.963170
41.582000;29.961595
41.620000;29.960005
41.659000;29.962375
41.697000;29.961595
41.735000;29.963170
41.773000;29.963170
41.811000;29.963170
41.849000;29.962375
41.887000;29.961595
41.926000;29.963170
41.964000;29.961595
42.002000;29.963170
42.040000;29.963170
42.078000;29.960005
42.116000;29.958416
42.154000;29.960005
42.192000;29.961595
42.230000;29.960005
42.268000;29.961595
42.306000;29.962375
42.344000;29.963170
42.382000;29.959210
42.420000;29.961595
42.458000;29.961595
42.496000;-10.640759
42.535000;-30.036083
42.573000;-30.056677
42.611000;-30.048757
42.649000;-30.040043
42.687000;-30.025793
42.725000;-30.012324
42.763000;-30.000444
42.801000;-29.988549
42.839000;-29.974300
42.878000;-29.961625
42.916000;-29.957666
42.954000;-29.959240
42.992000;-29.960035
43.030000;-29.960830
43.068000;-29.963995
43.106000;-29.961625
43.144000;-29.961625
43.182000;-29.963995
43.220000;-29.963995
43.258000;-29.963995
43.296000;-29.963200
43.334000;-29.963200
43.373000;-29.962405
43.411000;-29.963200
43.449000;-29.963995
43.487000;-29.964790
43.525000;-29.962405
43.563000;-29.963995
43.601000;-29.963995
43.639000;-29.963200
43.677000;-29.964790
43.715000;-29.963995
43.753000;-29.963200
43.791000;-29.963995
43.830000;-29.964790
43.868000;-29.962405
43.906000;-29.962405
43.944000;-29.963200
43.982000;-29.965585
44.020000;-29.964790
44.058000;-29.964790
44.096000;-29.963200
44.134000;-29.963200
44.172000;-29.964790
44.210000;-29.963995
44.248000;-29.966380
44.286000;-29.965585
44.324000;-29.964790
44.363000;-29.963995
44.401000;-29.965585
44.439000;-29.964790
44.477000;-29.963995
44.515000;-29.963995
44.553000;-29.963200
44.591000;-29.963995
44.629000;-29.965585
44.667000;-29.962405
44.706000;-29.964790
44.744000;-29.965585
44.782000;-29.964790
44.820000;-29.963995
44.858000;-29.963995
44.896000;-29.966380
44.934000;-29.964790
44.972000;-29.963995
45.010000;-29.963200
45.048000;-29.963200
45.086000;-29.964790
45.124000;-29.963995
45.162000;-29.964790
45.201000;-29.963200
45.239000;-29.962405
45.277000;-29.962405
45.315000;-29.963200
45.353000;-29.964790
45.391000;-29.966380
45.429000;-29.965585
45.467000;-29.963995
45.505000;-29.964790
45.543000;-29.964790
45.581000;-29.963995
45.619000;-29.965585
45.658000;-29.961625
45.696000;-29.965585
45.734000;-29.963995
45.772000;-29.964790
45.810000;-29.964790
45.848000;-29.962405
45.886000;-29.965585
45.924000;-29.965585
45.962000;-29.966380
46.000000;-29.963200
46.038000;-29.965585
46.077000;-29.965585
46.115000;-29.965585
46.153000;-29.966380
46.191000;-29.967160
46.229000;-29.964790
46.267000;-29.964790
46.305000;-29.963995
46.343000;-29.964790
46.381000;-29.964790
46.419000;-29.963995
46.457000;-29.963995
46.496000;-29.963995
46.534000;-29.965585
46.572000;-29.963995
46.610000;-29.963200
46.648000;-29.963995
46.686000;-29.963995
46.724000;-29.964790
46.762000;-29.963995
46.800000;-29.963995
46.838000;-29.965585
46.877000;-29.964790
46.915000;-29.961625
46.953000;-29.963200
46.991000;-29.965585
47.029000;-29.963995
47.067000;-29.966380
47.105000;-29.964790
47.143000;-29.963995
47.181000;-29.963200
47.219000;-29.962405
47.257000;-29.964790
47.295000;-29.963200
47.333000;-29.962405
47.372000;-29.963200
47.410000;-29.964790
47.448000;-29.966380
47.486000;-24.312488
47.524000;38.828655
47.562000;40.112803
47.600000;40.073984
47.638000;40.048635
47.676000;40.026451
47.714000;40.004267
47.752000;39.980508
47.790000;39.959119
47.828000;39.944854
47.867000;39.943279
47.905000;39.944854
47.943000;39.947239
47.981000;39.949609
48.019000;39.951979
48.057000;39.951199
48.095000;39.948814
48.133000;39.950404
48.171000;39.951979
48.209000;39.950404
48.247000;39.951199
48.285000;39.950404
48.323000;39.951199
48.361000;39.948814
48.399000;39.949609
48.437000;39.947239
48.475000;39.947239
48.514000;39.948019
48.552000;39.948814
48.590000;39.949609
48.628000;39.947239
48.666000;39.950404
48.704000;39.948814
48.742000;39.949609
48.780000;39.948814
48.818000;39.949609
48.856000;39.949609
48.894000;39.949609
48.932000;39.948814
48.970000;39.948814
49.008000;39.949609
49.046000;39.951199
49.084000;39.950404
49.122000;39.950404
49.160000;39.949609
49.198000;39.950404
49.236000;39.950404
49.275000;39.948814
49.313000;39.950404
49.351000;39.949609
49.389000;39.950404
49.427000;39.949609
49.465000;39.950404
49.503000;39.948814
49.541000;39.948814
49.579000;39.948019
49.617000;39.948814
49.655000;39.951979
49.693000;39.950404
49.731000;39.950404
49.769000;39.949609
49.807000;39.948814
49.845000;39.949609
49.883000;39.948814
49.922000;39.949609
49.960000;39.951199
49.998000;39.951979
50.036000;39.951979
50.074000;39.949609
50.112000;39.950404
50.150000;39.948814
50.188000;39.948814
50.226000;39.948019
50.264000;39.950404
50.302000;39.949609
50.340000;39.948814
50.378000;39.948814
50.416000;39.950404
50.454000;39.950404
50.492000;39.950404
50.530000;39.950404
50.569000;39.951979
50.607000;39.950404
50.645000;39.951979
50.683000;39.953569
50.721000;39.951979
50.759000;39.949609
50.797000;39.950404
50.835000;39.951979
50.873000;39.951979
50.911000;39.952774
50.949000;39.950404
50.987000;39.950404
51.025000;39.950404
51.063000;39.952774
51.101000;39.952774
51.139000;39.950404
51.177000;39.948814
51.215000;39.948019
51.254000;39.949609
51.292000;39.950404
51.330000;39.949609
51.368000;39.950404
51.406000;39.951199
51.444000;39.950404
51.482000;39.950404
51.520000;39.949609
51.558000;39.949609
51.596000;39.951199
51.634000;39.951979
51.672000;39.950404
51.710000;39.951199
51.748000;39.951979
51.786000;39.950404
51.824000;39.950404
51.862000;39.951979
51.900000;39.952774
51.938000;39.950404
51.977000;39.952774
52.015000;39.951199
52.053000;39.951979
52.091000;39.950404
52.129000;39.949609
52.167000;39.949609
52.205000;39.951199
52.243000;39.950404
52.281000;39.950404
52.319000;39.948019
52.357000;39.948814
52.395000;39.950404
52.433000;39.949609
52.471000;39.950404
52.509000;16.884835
52.547000;-40.008257
52.585000;-40.057380
52.623000;-40.055790
52.662000;-40.051035
52.700000;-40.037581
52.738000;-40.025686
52.776000;-40.016971
52.814000;-40.006682
52.852000;-39.997967
52.890000;-39.986088
52.928000;-39.969438
52.966000;-39.955984
53.004000;-39.952009
53.043000;-39.952804
53.081000;-39.955984
53.119000;-39.955984
53.157000;-39.957559
53.195000;-39.956764
53.233000;-39.959148
53.271000;-39.958354
53.309000;-39.957559
53.347000;-39.958354
53.385000;-39.959943
53.423000;-39.960723
53.461000;-39.959148
53.499000;-39.956764
53.537000;-39.957559
53.576000;-39.957559
53.614000;-39.957559
53.652000;-39.957559
53.690000;-39.958354
53.728000;-39.959148
53.766000;-39.959148
53.804000;-39.959148
53.842000;-39.958354
53.880000;-39.958354
53.918000;-39.956764
53.957000;-39.956764
53.995000;-39.957559
54.033000;-39.955984
54.071000;-39.958354
54.109000;-39.957559
54.147000;-39.957559
54.185000;-39.957559
54.223000;-39.959148
54.261000;-39.959148
54.299000;-39.957559
54.337000;-39.958354
54.376000;-39.959943
54.414000;-39.958354
54.452000;-39.958354
54.490000;-39.959148
54.528000;-39.958354
54.566000;-39.960723
54.604000;-39.956764
54.642000;-39.959148
54.680000;-39.957559
54.718000;-39.959148
54.756000;-39.960723
54.794000;-39.959943
54.832000;-39.957559
54.871000;-39.955984
54.909000;-39.956764
54.947000;-39.959943
54.985000;-39.957559
55.023000;-39.959943
55.061000;-39.959148
55.099000;-39.956764
55.137000;-39.959943
55.175000;-39.958354
55.213000;-39.958354
55.251000;-39.957559
55.289000;-39.955984
55.327000;-39.959148
55.365000;-39.958354
55.403000;-39.960723
55.441000;-39.958354
55.480000;-39.958354
55.518000;-39.956764
55.556000;-39.957559
55.594000;-39.959148
55.632000;-39.958354
55.670000;-39.957559
55.708000;-39.959943
55.746000;-39.957559
55.784000;-39.957559
55.822000;-39.958354
55.860000;-39.958354
55.898000;-39.959148
55.936000;-39.959943
55.975000;-39.958354
56.013000;-39.955984
56.051000;-39.959943
56.089000;-39.958354
56.127000;-39.959148
56.165000;-39.959148
56.203000;-39.958354
56.241000;-39.957559
56.279000;-39.955984
56.317000;-39.956764
56.355000;-39.958354
56.393000;-39.958354
56.431000;-39.960723
56.470000;-39.957559
56.508000;-39.956764
56.546000;-39.959148
56.584000;-39.957559
56.622000;-39.959943
56.660000;-39.959943
56.698000;-39.959148
56.736000;-39.958354
56.774000;-39.960723
56.812000;-39.959148
56.850000;-39.957559
56.889000;-39.958354
56.927000;-39.958354
56.965000;-39.957559
57.003000;-39.955984
57.041000;-39.958354
57.079000;-39.956764
57.117000;-39.958354
57.155000;-39.957559
57.193000;-39.955984
57.231000;-39.956764
57.269000;-39.959943
57.307000;-39.958354
57.345000;-39.955984
57.383000;-39.958354
57.422000;-39.956764
57.460000;-39.957559
57.498000;-39.959148
57.536000;33.824359
57.574000;50.113461
57.612000;50.080987
57.650000;50.054843
57.688000;50.034249
57.726000;50.012065
57.764000;49.988305
57.802000;49.967696
57.840000;49.948692
57.879000;49.934427
57.917000;49.933632
57.955000;49.934427
57.993000;49.937592
58.031000;49.938387
58.069000;49.937592
58.107000;49.940772
58.145000;49.939977
58.183000;49.938387
58.221000;49.939977
58.259000;49.939182
58.297000;49.939182
58.335000;49.938387
58.374000;49.939182
58.412000;49.938387
58.450000;49.942347
58.488000;49.937592
58.526000;49.938387
58.564000;49.939182
58.602000;49.940772
58.640000;49.938387
58.678000;49.939182
58.716000;49.939977
58.755000;49.940772
58.793000;49.939182
58.831000;49.937592
58.869000;49.939182
58.907000;49.939977
58.945000;49.937592
58.983000;49.940772
59.022000;49.939182
59.060000;49.939182
59.098000;49.937592
59.136000;49.940772
59.174000;49.937592
59.212000;49.939977
59.251000;49.940772
59.289000;49.939182
59.327000;49.939977
59.365000;49.940772
59.403000;49.942347
59.441000;49.939977
59.479000;49.939977
59.517000;49.939977
59.555000;49.939182
59.593000;49.940772
59.632000;49.939977
59.670000;49.940772
59.708000;49.939977
59.746000;49.939977
59.784000;49.939182
59.822000;49.938387
59.860000;49.940772
59.898000;49.939977
59.936000;49.939977
59.974000;49.938387
60.012000;49.938387
60.050000;49.940772
60.088000;49.939977
60.127000;49.938387
60.165000;49.939977
60.203000;49.939977
60.241000;49.939977
60.279000;49.939182
60.317000;49.941567
60.355000;49.939977
60.393000;49.940772
60.431000;49.941567
60.469000;49.942347
60.507000;49.940772
60.545000;49.939977
60.584000;49.939977
60.622000;49.940772
60.660000;49.938387
60.698000;49.939182
60.736000;49.939182
60.774000;49.939182
60.813000;49.939182
60.851000;49.936812
60.889000;49.939182
60.927000;49.939182
60.965000;49.939977
61.003000;49.939182
61.041000;49.939977
61.079000;49.938387
61.117000;49.939977
61.155000;49.939182
61.193000;49.940772
61.233000;49.938387
61.271000;49.940772
61.309000;49.939977
61.348000;49.940772
61.386000;49.939977
61.424000;49.942347
61.462000;49.939182
61.500000;49.939977
61.538000;49.940772
61.576000;49.936017
61.614000;49.940772
61.652000;49.941567
61.690000;49.940772
61.728000;49.939182
61.766000;49.940772
61.804000;49.940772
61.842000;49.938387
61.881000;49.938387
61.919000;49.937592
61.957000;49.939977
61.995000;49.940772
62.033000;49.939977
62.071000;49.939182
62.109000;49.940772
62.147000;49.940772
62.185000;49.941567
62.223000;49.939977
62.261000;49.940772
62.300000;49.939182
62.338000;49.939182
62.376000;49.941567
62.414000;49.939182
62.452000;49.940772
62.490000;35.670176
62.528000;-49.960601
62.566000;-50.056463
62.604000;-50.051708
62.642000;-50.047748
62.681000;-50.040609
62.719000;-50.031894
62.757000;-50.026359
62.795000;-50.020014
62.833000;-50.010505
62.871000;-50.004175
62.909000;-49.992295
62.947000;-49.978031
62.985000;-49.959012
63.023000;-49.948722
63.061000;-49.946337
63.099000;-49.949517
63.137000;-49.952682
63.176000;-49.954272
63.214000;-49.954272
63.252000;-49.955052
63.290000;-49.954272
63.328000;-49.955847
63.366000;-49.955847
63.404000;-49.954272
63.442000;-49.954272
63.480000;-49.955052
63.518000;-49.955052
63.556000;-49.954272
63.594000;-49.955052
63.632000;-49.957437
63.670000;-49.953477
63.709000;-49.955847
63.747000;-49.955052
63.785000;-49.956642
63.823000;-49.955052
63.861000;-49.955052
63.899000;-49.955052
63.937000;-49.955052
63.975000;-49.955052
64.013000;-49.955847
64.051000;-49.955847
64.089000;-49.955052
64.127000;-49.954272
64.165000;-49.956642
64.203000;-49.954272
64.241000;-49.955052
64.280000;-49.957437
64.318000;-49.955052
64.356000;-49.956642
64.394000;-49.955847
64.432000;-49.955847
64.470000;-49.953477
64.508000;-49.952682
64.546000;-49.953477
64.585000;-49.956642
64.623000;-49.955052
64.661000;-49.955052
64.699000;-49.955052
64.737000;-49.953477
64.775000;-49.951092
64.813000;-49.954272
64.851000;-49.955052
64.889000;-49.955847
64.927000;-49.955052
64.965000;-49.955847
65.003000;-49.955052
65.041000;-49.956642
65.079000;-49.955847
65.117000;-49.955847
65.155000;-49.956642
65.193000;-49.956642
65.232000;-49.955847
65.270000;-49.957437
65.308000;-49.956642
65.346000;-49.954272
65.384000;-49.955052
65.422000;-49.957437
65.460000;-49.956642
65.498000;-49.957437
65.536000;-49.955052
65.574000;-49.955052
65.612000;-49.956642
65.650000;-49.956642
65.688000;-49.954272
65.727000;-49.955052
65.765000;-49.954272
65.803000;-49.955052
65.841000;-49.956642
65.879000;-49.958232
65.917000;-49.956642
65.955000;-49.955052
65.993000;-49.956642
66.031000;-49.957437
66.069000;-49.957437
66.107000;-49.956642
66.145000;-49.955052
66.184000;-49.955847
66.222000;-49.955847
66.260000;-49.956642
66.298000;-49.955847
66.336000;-49.955847
66.374000;-49.954272
66.412000;-49.955847
66.450000;-49.958232
66.488000;-49.956642
66.526000;-49.956642
66.564000;-49.958232
66.602000;-49.955052
66.640000;-49.956642
66.678000;-49.958232
66.716000;-49.957437
66.755000;-49.955847
66.793000;-49.955052
66.831000;-49.955847
66.869000;-49.958232
66.907000;-49.959012
66.945000;-49.957437
66.983000;-49.955052
67.021000;-49.956642
67.059000;-49.954272
67.097000;-49.957437
67.135000;-49.958232
67.173000;-49.955847
67.211000;-49.955052
67.249000;-49.957437
67.288000;-49.956642
67.325000;-49.956642
67.364000;-49.958232
67.402000;-49.955052
67.440000;-49.955847
67.478000;-49.955847
67.516000;-49.448055
67.554000;53.686270
67.592000;60.089565
67.630000;60.056296
67.668000;60.034112
67.706000;60.013518
67.744000;59.991333
67.783000;59.969944
67.821000;59.948555
67.859000;59.933510
67.897000;59.921631
67.935000;59.912916
67.973000;59.912121
68.011000;59.915286
68.049000;59.916876
68.087000;59.916081
68.125000;59.916081
68.163000;59.916876
68.201000;59.918451
68.239000;59.917671
68.277000;59.917671
68.315000;59.916876
68.353000;59.916876
68.391000;59.917671
68.430000;59.918451
68.468000;59.917671
68.506000;59.916081
68.544000;59.916876
68.582000;59.918451
68.620000;59.916876
68.658000;59.917671
68.696000;59.915286
68.734000;59.917671
68.772000;59.916876
68.811000;59.918451
68.849000;59.916876
68.887000;59.917671
68.925000;59.916876
68.963000;59.916081
69.001000;59.917671
69.039000;59.917671
69.077000;59.919246
69.115000;59.919246
69.153000;59.918451
69.191000;59.919246
69.229000;59.916876
69.267000;59.918451
69.305000;59.916876
69.343000;59.918451
69.382000;59.917671
69.420000;59.916876
69.458000;59.916876
69.496000;59.916876
69.534000;59.917671
69.572000;59.917671
69.610000;59.916876
69.648000;59.916876
69.686000;59.917671
69.724000;59.919246
69.762000;59.919246
69.801000;59.919246
69.839000;59.918451
69.877000;59.917671
69.916000;59.918451
69.954000;59.919246
69.992000;59.916876
70.030000;59.917671
70.068000;59.918451
70.106000;59.917671
70.144000;59.916081
70.182000;59.917671
70.220000;59.916876
70.258000;59.918451
70.296000;59.919246
70.334000;59.919246
70.372000;59.920041
70.410000;59.920836
70.448000;59.920041
70.486000;59.920041
70.524000;59.919246
70.563000;59.918451
70.601000;59.917671
70.639000;59.920041
70.677000;59.919246
70.715000;59.919246
70.753000;59.920041
70.791000;59.920041
70.829000;59.920041
70.867000;59.919246
70.905000;59.918451
70.943000;59.918451
70.982000;59.918451
71.020000;59.920836
71.058000;59.918451
71.096000;59.918451
71.134000;59.919246
71.172000;59.919246
71.210000;59.918451
71.248000;59.917671
71.286000;59.921631
71.324000;59.920041
71.362000;59.919246
71.400000;59.920836
71.438000;59.918451
71.476000;59.920041
71.514000;59.920041
71.553000;59.920041
71.591000;59.918451
71.629000;59.920041
71.667000;59.919246
71.705000;59.919246
71.743000;59.920041
71.781000;59.920041
71.819000;59.918451
71.857000;59.918451
71.895000;59.920041
71.933000;59.917671
71.972000;59.916876
72.010000;59.919246
72.048000;59.920041
72.086000;59.919246
72.124000;59.917671
72.162000;59.919246
72.200000;59.920836
72.238000;59.919246
72.276000;59.920041
72.314000;59.919246
72.352000;59.920041
72.390000;59.919246
72.429000;59.918451
72.467000;59.919246
72.505000;40.195975
72.543000;-59.973154
72.582000;-60.053161
72.620000;-60.043651
72.658000;-60.038897
72.696000;-60.032567
72.734000;-60.027812
72.772000;-60.019892
72.810000;-60.014342
72.848000;-60.010383
72.886000;-60.005628
72.924000;-60.001668
72.962000;-59.996118
73.000000;-59.987403
73.038000;-59.969194
73.076000;-59.947805
73.114000;-59.931950
73.152000;-59.930376
73.191000;-59.932745
73.229000;-59.937500
73.267000;-59.939090
73.305000;-59.939870
73.343000;-59.940665
73.381000;-59.943050
73.419000;-59.942255
73.457000;-59.943050
73.495000;-59.942255
73.533000;-59.939870
73.571000;-59.941460
73.609000;-59.943845
73.647000;-59.942255
73.686000;-59.943845
73.724000;-59.942255
73.762000;-59.940665
73.800000;-59.943050
73.838000;-59.941460
73.876000;-59.942255
73.914000;-59.939090
73.952000;-59.940665
73.990000;-59.940665
74.028000;-59.941460
74.066000;-59.942255
74.104000;-59.942255
74.143000;-59.941460
74.181000;-59.939870
74.219000;-59.942255
74.257000;-59.943050
74.295000;-59.942255
74.333000;-59.940665
74.371000;-59.942255
74.409000;-59.941460
74.447000;-59.940665
74.485000;-59.942255
74.523000;-59.940665
74.561000;-59.940665
74.600000;-59.940665
74.638000;-59.943050
74.676000;-59.944625
74.714000;-59.941460
74.752000;-59.942255
74.790000;-59.941460
74.828000;-59.941460
74.866000;-59.939870
74.904000;-59.943050
74.942000;-59.943845
74.981000;-59.941460
75.019000;-59.941460
75.057000;-59.943050
75.095000;-59.943050
75.133000;-59.940665
75.171000;-59.940665
75.209000;-59.940665
75.247000;-59.943050
75.285000;-59.943050
75.323000;-59.943050
75.361000;-59.940665
75.399000;-59.941460
75.437000;-59.940665
75.476000;-59.942255
75.514000;-59.942255
75.552000;-59.940665
75.590000;-59.940665
75.628000;-59.941460
75.666000;-59.943050
75.704000;-59.943050
75.742000;-59.941460
75.780000;-59.940665
75.819000;-59.939090
75.857000;-59.941460
75.895000;-59.939870
75.933000;-59.942255
75.971000;-59.943050
76.009000;-59.941460
76.047000;-59.941460
76.085000;-59.939090
76.123000;-59.941460
76.161000;-59.942255
76.199000;-59.943050
76.237000;-59.940665
76.275000;-59.939870
76.313000;-59.944625
76.352000;-59.943845
76.390000;-59.943050
76.428000;-59.941460
76.466000;-59.942255
76.504000;-59.942255
76.542000;-59.940665
76.580000;-59.941460
76.618000;-59.942255
76.656000;-59.941460
76.694000;-59.939870
76.732000;-59.941460
76.770000;-59.942255
76.809000;-59.940665
76.847000;-59.941460
76.885000;-59.942255
76.923000;-59.941460
76.961000;-59.940665
76.999000;-59.940665
77.037000;-59.940665
77.075000;-59.943050
77.113000;-59.941460
77.151000;-59.940665
77.189000;-59.941460
77.227000;-59.943845
77.265000;-59.942255
77.303000;-59.940665
77.342000;-59.940665
77.380000;-59.943050
77.418000;-59.943845
77.456000;-59.942255
77.494000;-59.940665
77.532000;23.711175
77.570000;70.087118
77.608000;70.060974
77.646000;70.035625
77.685000;70.016605
77.723000;69.999971
77.761000;69.980172
77.799000;69.957988
77.837000;69.943723
77.875000;69.927884
77.913000;69.913619
77.951000;69.905699
77.989000;69.901740
78.027000;69.904904
78.065000;69.906494
78.103000;69.907289
78.141000;69.905699
78.180000;69.908069
78.218000;69.906494
78.256000;69.906494
78.294000;69.906494
78.332000;69.905699
78.370000;69.907289
78.408000;69.905699
78.446000;69.907289
78.484000;69.908069
78.522000;69.907289
78.560000;69.908069
78.598000;69.907289
78.637000;69.908069
78.675000;69.908069
78.713000;69.908069
78.751000;69.907289
78.789000;69.908069
78.827000;69.905699
78.865000;69.906494
78.903000;69.907289
78.941000;69.908069
78.980000;69.908069
79.018000;69.907289
79.056000;69.906494
79.094000;69.905699
79.132000;69.904904
79.170000;69.905699
79.208000;69.908069
79.246000;69.908069
79.284000;69.908069
79.322000;69.906494
79.360000;69.906494
79.398000;69.907289
79.436000;69.907289
79.475000;69.908069
79.513000;69.905699
79.551000;69.906494
79.589000;69.907289
79.627000;69.906494
79.665000;69.907289
79.703000;69.904904
79.741000;69.905699
79.779000;69.906494
79.817000;69.906494
79.855000;69.908069
79.893000;69.905699
79.931000;69.908069
79.969000;69.908069
80.008000;69.908069
80.046000;69.906494
80.084000;69.908864
80.122000;69.908069
80.160000;69.908864
80.198000;69.908864
80.236000;69.910454
80.274000;69.908864
80.312000;69.908864
80.350000;69.908864
80.388000;69.909659
80.426000;69.908069
80.464000;69.907289
80.502000;69.908864
80.540000;69.908864
80.579000;69.908069
80.617000;69.907289
80.655000;69.908069
80.693000;69.907289
80.731000;69.908069
80.769000;69.909659
80.807000;69.908864
80.845000;69.906494
80.883000;69.908864
80.922000;69.907289
80.960000;69.906494
80.998000;69.906494
81.036000;69.908864
81.074000;69.908069
81.112000;69.908864
81.150000;69.907289
81.188000;69.908864
81.226000;69.908864
81.264000;69.908069
81.302000;69.911249
81.340000;69.909659
81.378000;69.909659
81.416000;69.906494
81.454000;69.907289
81.492000;69.908069
81.530000;69.908069
81.568000;69.908069
81.606000;69.910454
81.644000;69.908069
81.683000;69.908864
81.721000;69.908069
81.759000;69.910454
81.797000;69.909659
81.835000;69.908864
81.873000;69.907289
81.911000;69.908069
81.949000;69.909659
81.987000;69.908864
82.025000;69.906494
82.063000;69.909659
82.102000;69.909659
82.140000;69.908069
82.178000;69.905699
82.216000;69.904904
82.254000;69.908069
82.292000;69.905699
82.330000;69.907289
82.368000;69.909659
82.406000;69.908864
82.444000;69.909659
82.483000;69.908069
82.521000;64.116347
82.559000;-69.651399
82.597000;-70.057014
82.635000;-70.040380
82.673000;-70.034830
82.711000;-70.034035
82.749000;-70.029280
82.787000;-70.027705
82.825000;-70.020565
82.863000;-70.015810
82.901000;-70.011056
82.939000;-70.007891
82.978000;-70.003136
83.016000;-69.999971
83.054000;-69.998381
83.092000;-69.991256
83.130000;-69.980172
83.168000;-69.960357
83.206000;-69.932638
83.244000;-69.919169
83.282000;-69.922334
83.320000;-69.928679
83.358000;-69.934213
83.397000;-69.935803
83.435000;-69.940558
83.473000;-69.939763
83.511000;-69.938968
83.549000;-69.936598
83.587000;-69.938968
83.625000;-69.938173
83.663000;-69.937393
83.701000;-69.936598
83.739000;-69.938968
83.777000;-69.938173
83.815000;-69.940558
83.853000;-69.938968
83.891000;-69.938968
83.929000;-69.937393
83.967000;-69.937393
84.006000;-69.935803
84.044000;-69.936598
84.082000;-69.938173
84.120000;-69.937393
84.158000;-69.936598
84.196000;-69.937393
84.234000;-69.938173
84.272000;-69.936598
84.310000;-69.936598
84.348000;-69.937393
84.386000;-69.938173
84.424000;-69.937393
84.462000;-69.937393
84.500000;-69.936598
84.538000;-69.938968
84.577000;-69.937393
84.615000;-69.936598
84.653000;-69.937393
84.691000;-69.937393
84.729000;-69.936598
84.767000;-69.938173
84.805000;-69.936598
84.843000;-69.937393
84.881000;-69.938173
84.919000;-69.937393
84.957000;-69.938173
84.995000;-69.936598
85.034000;-69.937393
85.072000;-69.935803
85.110000;-69.938173
85.148000;-69.938968
85.186000;-69.936598
85.224000;-69.938173
85.262000;-69.938173
85.300000;-69.937393
85.338000;-69.937393
85.376000;-69.935803
85.416000;-69.935803
85.454000;-69.936598
85.492000;-69.938173
85.530000;-69.937393
85.568000;-69.938173
85.606000;-69.937393
85.644000;-69.937393
85.683000;-69.937393
85.721000;-69.935803
85.759000;-69.938968
85.797000;-69.936598
85.835000;-69.935803
85.873000;-69.938173
85.911000;-69.935008
85.949000;-69.937393
85.987000;-69.935803
86.025000;-69.935803
86.063000;-69.935803
86.102000;-69.935008
86.140000;-69.935008
86.178000;-69.938173
86.216000;-69.935008
86.254000;-69.935803
86.292000;-69.936598
86.330000;-69.937393
86.368000;-69.936598
86.406000;-69.935803
86.444000;-69.937393
86.483000;-69.936598
86.521000;-69.937393
86.559000;-69.936598
86.597000;-69.937393
86.635000;-69.937393
86.675000;-69.935803
86.713000;-69.936598
86.751000;-69.937393
86.789000;-69.935008
86.827000;-69.937393
86.865000;-69.937393
86.903000;-69.938173
86.941000;-69.937393
86.979000;-69.938173
87.017000;-69.935803
87.055000;-69.937393
87.093000;-69.938173
87.131000;-69.937393
87.169000;-69.937393
87.207000;-69.936598
87.245000;-69.936598
87.284000;-69.937393
87.322000;-69.938173
87.360000;-69.936598
87.398000;-69.936598
87.436000;-69.938173
87.474000;-69.937393
87.512000;-69.832817
87.550000;62.419414
87.588000;80.086981
87.626000;80.049752
87.664000;80.023608
87.702000;80.003809
87.740000;79.987174
87.779000;79.968950
87.817000;79.953111
87.855000;79.938846
87.893000;79.926172
87.931000;79.911112
87.969000;79.898438
88.007000;79.893683
88.045000;79.892108
88.083000;79.891313
88.121000;79.896068
88.159000;79.894478
88.197000;79.895273
88.235000;79.897643
88.274000;79.896068
88.312000;79.898438
88.350000;79.898438
88.388000;79.896863
88.426000;79.897643
88.464000;79.896068
88.502000;79.896068
88.540000;79.897643
88.578000;79.896068
88.616000;79.896863
88.654000;79.896863
88.692000;79.894478
88.730000;79.894478
88.768000;79.896068
88.806000;79.896068
88.844000;79.896863
88.882000;79.900028
88.920000;79.896068
88.958000;79.896068
88.997000;79.897643
89.035000;79.897643
89.073000;79.896863
89.111000;79.898438
89.149000;79.897643
89.187000;79.897643
89.225000;79.896863
89.263000;79.897643
89.301000;79.896863
89.339000;79.898438
89.377000;79.899233
89.415000;79.896863
89.454000;79.896068
89.492000;79.897643
89.530000;79.896863
89.568000;79.896068
89.606000;79.897643
89.644000;79.896863
89.682000;79.897643
89.720000;79.898438
89.758000;79.896863
89.796000;79.897643
89.834000;79.897643
89.872000;79.897643
89.910000;79.899233
89.948000;79.898438
89.986000;79.898438
90.024000;79.900028
90.063000;79.896863
90.101000;79.896863
90.139000;79.896068
90.177000;79.896863
90.215000;79.898438
90.253000;79.896068
90.291000;79.896863
90.329000;79.896068
90.367000;79.896863
90.405000;79.894478
90.443000;79.895273
90.481000;79.894478
90.519000;79.893683
90.557000;79.894478
90.596000;79.895273
90.634000;79.894478
90.671000;79.896068
90.710000;79.894478
90.748000;79.896068
90.786000;79.896068
90.824000;79.896068
90.862000;79.895273
90.900000;79.894478
90.939000;79.895273
90.977000;79.894478
91.015000;79.897643
91.053000;79.895273
91.091000;79.895273
91.129000;79.896068
91.167000;79.896863
91.205000;79.898438
91.243000;79.896863
91.281000;79.897643
91.319000;79.896068
91.358000;79.896863
91.396000;79.896068
91.434000;79.896068
91.472000;79.896068
91.510000;79.893683
91.548000;79.895273
91.586000;79.896863
91.624000;79.897643
91.662000;79.896863
91.700000;79.896068
91.738000;79.896863
91.777000;79.896068
91.815000;79.897643
91.853000;79.894478
91.891000;79.897643
91.929000;79.895273
91.967000;79.893683
92.005000;79.896863
92.043000;79.896068
92.081000;79.896068
92.119000;79.895273
92.157000;79.897643
92.195000;79.896068
92.233000;79.898438
92.271000;79.896068
92.309000;79.893683
92.347000;79.896068
92.385000;79.893683
92.423000;79.895273
92.461000;79.898438
92.499000;74.934550
92.537000;-78.607960
92.576000;-80.055302
92.614000;-80.032323
92.652000;-80.027568
92.690000;-80.026773
92.728000;-80.026773
92.766000;-80.024403
92.804000;-80.020443
92.842000;-80.014098
92.880000;-80.009344
92.918000;-80.006179
92.956000;-80.004589
92.994000;-79.999849
93.032000;-79.995889
93.071000;-79.991914
93.109000;-79.987954
93.147000;-79.984790
93.185000;-79.979240
93.223000;-79.964990
93.261000;-79.938846
93.299000;-79.908742
93.337000;-79.903988
93.375000;-79.909537
93.413000;-79.918252
93.452000;-79.925377
93.490000;-79.930132
93.528000;-79.931722
93.566000;-79.932501
93.604000;-79.930132
93.642000;-79.930927
93.680000;-79.930927
93.718000;-79.931722
93.756000;-79.932501
93.794000;-79.930132
93.832000;-79.930132
93.870000;-79.930132
93.909000;-79.928542
93.947000;-79.928542
93.985000;-79.932501
94.023000;-79.929337
94.061000;-79.930132
94.099000;-79.930132
94.137000;-79.931722
94.175000;-79.930132
94.213000;-79.930927
94.251000;-79.931722
94.290000;-79.929337
94.328000;-79.928542
94.366000;-79.930132
94.404000;-79.931722
94.442000;-79.929337
94.480000;-79.927747
94.518000;-79.928542
94.556000;-79.930132
94.594000;-79.930927
94.632000;-79.930132
94.670000;-79.930927
94.708000;-79.931722
94.746000;-79.930132
94.784000;-79.928542
94.822000;-79.929337
94.860000;-79.931722
94.899000;-79.928542
94.937000;-79.930132
94.975000;-79.930132
95.013000;-79.929337
95.051000;-79.929337
95.089000;-79.927747
95.127000;-79.930927
95.165000;-79.930132
95.203000;-79.930132
95.241000;-79.930927
95.279000;-79.931722
95.317000;-79.930927
95.355000;-79.931722
95.393000;-79.931722
95.432000;-79.930927
95.470000;-79.930927
95.508000;-79.931722
95.546000;-79.929337
95.584000;-79.929337
95.622000;-79.929337
95.660000;-79.930132
95.698000;-79.931722
95.736000;-79.930132
95.775000;-79.929337
95.813000;-79.929337
95.851000;-79.930927
95.889000;-79.929337
95.927000;-79.929337
95.965000;-79.930132
96.003000;-79.930132
96.041000;-79.928542
96.079000;-79.930132
96.117000;-79.931722
96.155000;-79.929337
96.193000;-79.928542
96.231000;-79.928542
96.269000;-79.928542
96.307000;-79.930132
96.345000;-79.931722
96.383000;-79.931722
96.421000;-79.928542
96.459000;-79.929337
96.497000;-79.930132
96.535000;-79.929337
96.574000;-79.929337
96.612000;-79.928542
96.650000;-79.931722
96.688000;-79.930927
96.726000;-79.930132
96.764000;-79.929337
96.802000;-79.928542
96.840000;-79.930927
96.878000;-79.929337
96.916000;-79.929337
96.954000;-79.930132
96.992000;-79.930132
97.030000;-79.930132
97.069000;-79.930927
97.107000;-79.929337
97.145000;-79.928542
97.183000;-79.928542
97.221000;-79.928542
97.259000;-79.930927
97.297000;-79.930132
97.335000;-79.932501
97.373000;-79.931722
97.411000;-79.930132
97.449000;-79.929337
97.487000;-79.930927
97.525000;-79.930132
97.563000;-76.187004
97.601000;82.895313
97.639000;90.084474
97.678000;90.030611
97.716000;90.002097
97.754000;89.983078
97.792000;89.964853
97.830000;89.947424
97.868000;89.932379
97.906000;89.919705
97.944000;89.909400
97.982000;89.896726
98.020000;89.881681
98.058000;89.872172
98.096000;89.867417
98.134000;89.870582
98.173000;89.872172
98.211000;89.871377
98.249000;89.872967
98.287000;89.872172
98.325000;89.872172
98.363000;89.873762
98.401000;89.872967
98.439000;89.873762
98.477000;89.873762
98.515000;89.875337
98.553000;89.875337
98.591000;89.874542
98.629000;89.876927
98.668000;89.875337
98.706000;89.874542
98.744000;89.876132
98.782000;89.874542
98.820000;89.875337
98.858000;89.874542
98.896000;89.873762
98.934000;89.871377
98.972000;89.873762
99.010000;89.873762
99.048000;89.872172
99.086000;89.871377
99.124000;89.872172
99.163000;89.875337
99.201000;89.875337
99.239000;89.876132
99.277000;89.873762
99.315000;89.874542
99.353000;89.873762
99.391000;89.874542
99.429000;89.874542
99.467000;89.873762
99.505000;89.874542
99.543000;89.874542
99.581000;89.876132
99.619000;89.875337
99.657000;89.874542
99.696000;89.874542
99.734000;89.874542
99.772000;89.874542
99.810000;89.872967
99.848000;89.873762
99.886000;89.875337
99.924000;89.873762
99.962000;89.872967
100.000000;89.874542
100.038000;89.873762
100.077000;89.875337
100.115000;89.872967
100.153000;89.872172
100.191000;89.873762
100.229000;89.875337
100.267000;89.872967
100.305000;89.873762
100.343000;89.875337
100.381000;89.874542
100.419000;89.874542
100.457000;89.873762
100.495000;89.873762
100.533000;89.872967
100.572000;89.873762
100.610000;89.872967
100.648000;89.872967
100.686000;89.872967
100.724000;89.874542
100.762000;89.874542
100.800000;89.872967
100.838000;89.873762
100.876000;89.872967
100.914000;89.875337
100.952000;89.874542
100.991000;89.874542
101.029000;89.872967
101.067000;89.872967
101.105000;89.871377
101.143000;89.871377
101.181000;89.871377
101.219000;89.873762
101.257000;89.872967
101.295000;89.871377
101.333000;89.874542
101.371000;89.872172
101.409000;89.872967
101.449000;89.873762
101.487000;89.874542
101.526000;89.872967
101.564000;89.872967
101.602000;89.872967
101.640000;89.872967
101.678000;89.872967
101.716000;89.874542
101.754000;89.872967
101.792000;89.872967
101.830000;89.873762
101.868000;89.871377
101.906000;89.873762
101.944000;89.872967
101.983000;89.872172
102.021000;89.874542
102.060000;89.874542
102.098000;89.874542
102.136000;89.872967
102.175000;89.876132
102.213000;89.875337
102.251000;89.874542
102.289000;89.875337
102.327000;89.874542
102.365000;89.873762
102.403000;89.874542
102.441000;89.875337
102.479000;89.872967
102.517000;41.500732
102.555000;-90.021896
102.593000;-90.041695
102.631000;-90.016346
102.671000;-90.012387
102.709000;-90.014771
102.747000;-90.019526
102.786000;-90.014771
102.824000;-90.013182
102.862000;-90.006057
102.900000;-90.001302
102.938000;-89.996547
102.976000;-89.993382
103.014000;-89.987037
103.052000;-89.986243
103.090000;-89.981488
103.128000;-89.980708
103.166000;-89.975953
103.204000;-89.974363
103.242000;-89.971993
103.282000;-89.964853
103.320000;-89.952974
103.358000;-89.929215
103.397000;-89.891971
103.435000;-89.878516
103.473000;-89.886436
103.511000;-89.895151
103.549000;-89.904645
103.587000;-89.914155
103.625000;-89.919705
103.663000;-89.918910
103.701000;-89.918910
103.739000;-89.918115
103.777000;-89.918910
103.815000;-89.918115
103.854000;-89.917320
103.893000;-89.916540
103.931000;-89.918115
103.969000;-89.917320
104.007000;-89.919705
104.046000;-89.920500
104.084000;-89.918115
104.122000;-89.918115
104.160000;-89.919705
104.198000;-89.918910
104.236000;-89.918910
104.275000;-89.917320
104.313000;-89.916540
104.351000;-89.916540
104.389000;-89.917320
104.427000;-89.919705
104.465000;-89.918910
104.503000;-89.915745
104.541000;-89.918910
104.579000;-89.917320
104.618000;-89.917320
104.656000;-89.919705
104.694000;-89.917320
104.732000;-89.916540
104.770000;-89.919705
104.808000;-89.917320
104.846000;-89.916540
104.884000;-89.918115
104.922000;-89.918910
104.960000;-89.918910
104.998000;-89.917320
105.036000;-89.917320
105.074000;-89.920500
105.112000;-89.919705
105.151000;-89.917320
105.189000;-89.917320
105.227000;-89.918115
105.265000;-89.918115
105.303000;-89.918910
105.341000;-89.916540
105.379000;-89.917320
105.417000;-89.918910
105.455000;-89.916540
105.493000;-89.917320
105.531000;-89.918910
105.569000;-89.917320
105.607000;-89.917320
105.645000;-89.918910
105.683000;-89.916540
105.721000;-89.920500
105.759000;-89.918910
105.798000;-89.918910
105.836000;-89.918115
105.874000;-89.920500
105.912000;-89.921295
105.950000;-89.922075
105.988000;-89.918910
106.026000;-89.918910
106.064000;-89.920500
106.102000;-89.919705
106.140000;-89.918910
106.179000;-89.918910
106.217000;-89.920500
106.255000;-89.920500
106.293000;-89.921295
106.331000;-89.920500
106.369000;-89.919705
106.407000;-89.920500
106.445000;-89.919705
106.483000;-89.918910
106.521000;-89.918115
106.559000;-89.918115
106.597000;-89.915745
106.635000;-89.918115
106.673000;-89.918115
106.712000;-89.918910
106.750000;-89.918910
106.788000;-89.919705
106.826000;-89.918115
106.864000;-89.918115
106.902000;-89.918910
106.940000;-89.918115
106.978000;-89.918910
107.016000;-89.916540
107.054000;-89.917320
107.092000;-89.916540
107.130000;-89.915745
107.169000;-89.917320
107.207000;-89.918910
107.245000;-89.917320
107.283000;-89.918115
107.321000;-89.919705
107.359000;-89.919705
107.397000;-89.920500
107.435000;-89.917320
107.473000;-89.918910
107.511000;-88.454139
107.549000;83.007014
107.587000;100.095481
107.625000;100.035274
107.663000;100.000430
107.702000;99.980616
107.740000;99.960816
107.778000;99.941797
107.816000;99.929123
107.854000;99.921998
107.892000;99.914078
107.930000;99.903774
107.968000;99.888729
108.006000;99.871300
108.044000;99.858625
108.082000;99.853075
108.120000;99.855445
108.158000;99.856240
108.196000;99.860200
108.235000;99.860995
108.273000;99.857830
108.311000;99.860995
108.349000;99.857830
108.387000;99.860200
108.425000;99.860995
108.463000;99.860200
108.501000;99.858625
108.539000;99.859420
108.578000;99.858625
108.616000;99.860200
108.654000;99.858625
108.692000;99.858625
108.730000;99.860200
108.768000;99.860995
108.806000;99.860995
108.844000;99.860200
108.882000;99.860200
108.920000;99.860200
108.958000;99.860200
108.996000;99.861790
109.034000;99.860995
109.073000;99.859420
109.111000;99.860200
109.149000;99.860200
109.187000;99.860995
109.225000;99.861790
109.263000;99.860200
109.301000;99.858625
109.339000;99.860200
109.378000;99.860200
109.416000;99.860995
109.454000;99.860200
109.492000;99.861790
109.530000;99.860200
109.568000;99.860200
109.606000;99.858625
109.644000;99.858625
109.682000;99.858625
109.720000;99.859420
109.758000;99.860200
109.796000;99.860200
109.834000;99.858625
109.872000;99.859420
109.911000;99.860200
109.949000;99.860200
109.987000;99.860200
110.025000;99.858625
110.063000;99.858625
110.101000;99.860200
110.139000;99.860200
110.177000;99.858625
110.215000;99.858625
110.254000;99.859420
110.292000;99.861790
110.330000;99.859420
110.368000;99.858625
110.406000;99.859420
110.444000;99.860200
110.482000;99.863380
110.520000;99.860995
110.558000;99.860200
110.596000;99.860200
110.634000;99.859420
110.672000;99.859420
110.710000;99.860200
110.748000;99.857830
110.787000;99.860995
110.825000;99.860200
110.863000;99.860200
110.901000;99.860995
110.939000;99.861790
110.977000;99.860200
111.015000;99.861790
111.053000;99.860995
111.091000;99.859420
111.129000;99.858625
111.168000;99.857830
111.206000;99.860200
111.244000;99.860995
111.282000;99.860200
111.320000;99.860200
111.358000;99.860995
111.396000;99.862585
111.434000;99.862585
111.472000;99.862585
111.510000;99.860995
111.548000;99.858625
111.586000;99.858625
111.624000;99.860200
111.663000;99.860995
111.701000;99.859420
111.739000;99.861790
111.777000;99.860995
111.815000;99.860200
111.853000;99.862585
111.891000;99.861790
111.929000;99.860200
111.967000;99.860200
112.005000;99.861790
112.043000;99.860995
112.081000;99.859420
112.120000;99.857830
112.158000;99.860995
112.196000;99.863380
112.234000;99.861790
112.272000;99.860995
112.310000;99.860995
112.348000;99.859420
112.386000;99.860200
112.424000;99.860200
112.462000;99.859420
112.500000;99.860995
112.538000;66.364584
112.577000;-99.979011
112.615000;-100.037629
112.653000;-100.003565
112.691000;-99.999605
112.729000;-100.005140
112.767000;-100.011485
112.805000;-100.010690
112.843000;-100.009115
112.881000;-100.006730
112.919000;-100.003565
112.957000;-100.000400
112.995000;-99.994850
113.033000;-99.990890
113.072000;-99.986930
113.110000;-99.982971
113.148000;-99.979791
113.186000;-99.976626
113.224000;-99.974256
113.262000;-99.970296
113.300000;-99.967116
113.338000;-99.964746
113.376000;-99.958402
113.414000;-99.951277
113.453000;-99.944152
113.491000;-99.914048
113.529000;-99.873640
113.567000;-99.860965
113.605000;-99.866515
113.644000;-99.878394
113.682000;-99.887904
113.720000;-99.898194
113.758000;-99.906908
113.796000;-99.909293
113.834000;-99.910088
113.872000;-99.910883
113.910000;-99.909293
113.948000;-99.910088
113.986000;-99.910088
114.024000;-99.911663
114.062000;-99.908498
114.100000;-99.910883
114.138000;-99.910088
114.177000;-99.910088
114.215000;-99.910883
114.253000;-99.909293
114.291000;-99.909293
114.329000;-99.908498
114.367000;-99.909293
114.405000;-99.909293
114.443000;-99.908498
114.481000;-99.909293
114.519000;-99.912458
114.557000;-99.910883
114.595000;-99.910088
114.633000;-99.911663
114.672000;-99.908498
114.710000;-99.910883
114.748000;-99.910088
114.786000;-99.910088
114.824000;-99.909293
114.864000;-99.909293
114.902000;-99.909293
114.940000;-99.911663
114.978000;-99.908498
115.016000;-99.910883
115.054000;-99.910883
115.093000;-99.909293
115.131000;-99.909293
115.169000;-99.908498
115.207000;-99.910088
115.245000;-99.910088
115.283000;-99.908498
115.321000;-99.910883
115.359000;-99.910883
115.397000;-99.910088
115.435000;-99.910088
115.473000;-99.910883
115.511000;-99.910088
115.549000;-99.909293
115.587000;-99.909293
115.626000;-99.906128
115.664000;-99.910883
115.702000;-99.910088
115.740000;-99.910883
115.778000;-99.910883
115.816000;-99.910088
115.854000;-99.912458
115.892000;-99.910883
115.930000;-99.910088
115.968000;-99.910883
116.006000;-99.909293
116.044000;-99.910883
116.083000;-99.908498
116.121000;-99.908498
116.159000;-99.911663
116.197000;-99.911663
116.235000;-99.909293
116.273000;-99.911663
116.311000;-99.912458
116.349000;-99.911663
116.387000;-99.910088
116.425000;-99.910883
116.463000;-99.909293
116.501000;-99.910088
116.540000;-99.909293
116.578000;-99.910883
116.616000;-99.910883
116.654000;-99.909293
116.692000;-99.909293
116.730000;-99.910088
116.768000;-99.908498
116.806000;-99.910883
116.844000;-99.910088
116.882000;-99.907703
116.920000;-99.909293
116.958000;-99.910088
116.997000;-99.909293
117.035000;-99.910088
117.073000;-99.911663
117.111000;-99.908498
117.149000;-99.909293
117.187000;-99.909293
117.225000;-99.910088
117.263000;-99.909293
117.301000;-99.910088
117.339000;-99.909293
117.378000;-99.909293
117.416000;-99.911663
117.454000;-99.910883
117.492000;-99.912458
117.530000;-79.095157
117.568000;108.155271
117.606000;110.085850
117.644000;110.016927
117.682000;109.983659
117.720000;109.963064
117.758000;109.945635
117.796000;109.932165
117.834000;109.921876
117.873000;109.915531
117.911000;109.908406
117.949000;109.898897
117.987000;109.884632
118.025000;109.871163
118.063000;109.851363
118.101000;109.837099
118.139000;109.837099
118.177000;109.838689
118.215000;109.841059
118.254000;109.843444
118.292000;109.845019
118.330000;109.845814
118.368000;109.845814
118.406000;109.846609
118.444000;109.844239
118.482000;109.845814
118.520000;109.845019
118.558000;109.845814
118.596000;109.844239
118.634000;109.844239
118.672000;109.845814
118.710000;109.845019
118.748000;109.845019
118.786000;109.846609
118.825000;109.844239
118.863000;109.845814
118.901000;109.845814
118.939000;109.845019
118.977000;109.846609
119.015000;109.845019
119.053000;109.845814
119.091000;109.844239
119.129000;109.843444
119.167000;109.844239
119.206000;109.844239
119.244000;109.845814
119.282000;109.846609
119.320000;109.846609
119.358000;109.844239
119.396000;109.847404
119.434000;109.845814
119.472000;109.842649
119.510000;109.847404
119.548000;109.845019
119.586000;109.846609
119.624000;109.845019
119.662000;109.845814
119.700000;109.848199
119.739000;109.846609
119.777000;109.843444
119.815000;109.845019
119.853000;109.843444
119.891000;109.845814
119.929000;109.846609
119.967000;109.845814
120.005000;109.846609
120.043000;109.844239
120.081000;109.845814
120.120000;109.845814
120.158000;109.847404
120.196000;109.846609
120.234000;109.846609
120.272000;109.845814
120.310000;109.841854
120.348000;109.847404
120.386000;109.846609
120.424000;109.847404
120.462000;109.844239
120.500000;109.845019
120.538000;109.845814
120.577000;109.845814
120.615000;109.845814
120.653000;109.846609
120.691000;109.846609
120.729000;109.844239
120.767000;109.846609
120.805000;109.845019
120.843000;109.844239
120.881000;109.845019
120.919000;109.845814
120.957000;109.843444
120.995000;109.843444
121.033000;109.845019
121.071000;109.844239
121.109000;109.844239
121.147000;109.845019
121.185000;109.842649
121.223000;109.843444
121.262000;109.847404
121.300000;109.845019
121.338000;109.845019
121.376000;109.843444
121.414000;109.842649
121.452000;109.843444
121.491000;109.842649
121.529000;109.844239
121.567000;109.846609
121.605000;109.845814
121.643000;109.845019
121.681000;109.845019
121.719000;109.845814
121.757000;109.845019
121.795000;109.844239
121.833000;109.844239
121.871000;109.845019
121.909000;109.846609
121.947000;109.845814
121.985000;109.845019
122.023000;109.847404
122.061000;109.845814
122.099000;109.845019
122.138000;109.845019
122.178000;109.845814
122.216000;109.844239
122.254000;109.845019
122.292000;109.847404
122.330000;109.845019
122.368000;109.846609
122.406000;109.844239
122.444000;109.845019
122.482000;109.843444
122.520000;2.177740
122.558000;-110.054921
122.597000;-110.014527
122.635000;-109.982834
122.673000;-109.981259
122.711000;-109.992343
122.749000;-109.997098
122.787000;-110.000263
122.825000;-109.999468
122.863000;-109.998688
122.901000;-109.997098
122.939000;-109.995508
122.977000;-109.993933
123.016000;-109.987588
123.054000;-109.982834
123.092000;-109.976504
123.130000;-109.974119
123.168000;-109.971749
123.206000;-109.968584
123.244000;-109.961444
123.282000;-109.959075
123.320000;-109.957485
123.358000;-109.953525
123.398000;-109.951935
123.436000;-109.945605
123.474000;-109.942440
123.512000;-109.939260
123.550000;-109.922626
123.589000;-109.883807
123.627000;-109.842619
123.665000;-109.837069
123.703000;-109.844209
123.741000;-109.857678
123.779000;-109.871133
123.817000;-109.880642
123.855000;-109.890947
123.893000;-109.895702
123.931000;-109.902032
123.970000;-109.901237
124.008000;-109.902032
124.046000;-109.900457
124.084000;-109.901237
124.122000;-109.901237
124.160000;-109.902032
124.198000;-109.899662
124.236000;-109.900457
124.274000;-109.902032
124.312000;-109.901237
124.350000;-109.901237
124.388000;-109.900457
124.426000;-109.899662
124.465000;-109.899662
124.503000;-109.899662
124.541000;-109.901237
124.579000;-109.902032
124.618000;-109.901237
124.657000;-109.900457
124.695000;-109.898867
124.733000;-109.901237
124.771000;-109.902827
124.809000;-109.901237
124.847000;-109.901237
124.885000;-109.900457
124.923000;-109.900457
124.961000;-109.902032
124.999000;-109.902827
125.037000;-109.901237
125.076000;-109.899662
125.114000;-109.901237
125.152000;-109.899662
125.190000;-109.901237
125.228000;-109.899662
125.266000;-109.899662
125.304000;-109.901237
125.342000;-109.900457
125.381000;-109.899662
125.419000;-109.898867
125.457000;-109.898867
125.495000;-109.901237
125.533000;-109.898867
125.571000;-109.898867
125.609000;-109.899662
125.647000;-109.900457
125.685000;-109.900457
125.723000;-109.898867
125.761000;-109.899662
125.799000;-109.898867
125.837000;-109.900457
125.876000;-109.898072
125.914000;-109.899662
125.952000;-109.900457
125.990000;-109.901237
126.028000;-109.900457
126.066000;-109.899662
126.104000;-109.898867
126.142000;-109.898072
126.180000;-109.898867
126.218000;-109.899662
126.256000;-109.899662
126.294000;-109.901237
126.332000;-109.898867
126.370000;-109.898072
126.409000;-109.898072
126.447000;-109.900457
126.485000;-109.901237
126.523000;-109.901237
126.561000;-109.902032
126.599000;-109.897277
126.637000;-109.898867
126.675000;-109.898072
126.713000;-109.898867
126.751000;-109.898867
126.789000;-109.899662
126.827000;-109.899662
126.865000;-109.899662
126.903000;-109.898867
126.941000;-109.898867
126.980000;-109.899662
127.018000;-109.901237
127.056000;-109.898867
127.094000;-109.899662
127.132000;-109.901237
127.170000;-109.900457
127.208000;-109.898072
127.246000;-109.899662
127.284000;-109.899662
127.323000;-109.901237
127.361000;-109.899662
127.399000;-109.901237
127.437000;-109.902827
127.475000;-109.901237
127.513000;-74.427554
127.551000;119.173116
127.589000;120.086523
127.627000;120.004926
127.665000;119.968477
127.703000;119.947883
127.741000;119.929659
127.780000;119.920149
127.818000;119.913819
127.856000;119.909064
127.894000;119.902735
127.932000;119.897980
127.970000;119.886880
128.008000;119.874206
128.046000;119.855201
128.084000;119.837772
128.122000;119.825097
128.160000;119.821138
128.198000;119.825097
128.236000;119.826672
128.274000;119.829852
128.312000;119.829852
128.350000;119.831427
128.388000;119.827467
128.427000;119.829057
128.465000;119.826672
128.503000;119.829852
128.541000;119.831427
128.579000;119.831427
128.617000;119.830632
128.655000;119.830632
128.693000;119.831427
128.731000;119.832222
128.769000;119.831427
128.807000;119.831427
128.845000;119.830632
128.883000;119.831427
128.922000;119.830632
128.960000;119.830632
128.998000;119.830632
129.036000;119.829852
129.074000;119.830632
129.112000;119.829852
129.150000;119.829057
129.188000;119.831427
129.226000;119.829852
129.264000;119.832222
129.302000;119.831427
129.340000;119.831427
129.379000;119.831427
129.417000;119.829057
129.455000;119.827467
129.493000;119.828262
129.531000;119.829057
129.569000;119.830632
129.607000;119.827467
129.645000;119.828262
129.683000;119.829852
129.721000;119.829852
129.760000;119.829852
129.798000;119.831427
129.836000;119.830632
129.874000;119.830632
129.912000;119.829852
129.950000;119.830632
129.988000;119.829057
130.026000;119.831427
130.064000;119.831427
130.102000;119.830632
130.140000;119.829852
130.179000;119.830632
130.217000;119.829057
130.255000;119.829852
130.293000;119.829852
130.331000;119.833812
130.369000;119.831427
130.407000;119.831427
130.445000;119.830632
130.483000;119.829852
130.521000;119.829852
130.559000;119.828262
130.597000;119.829852
130.635000;119.830632
130.674000;119.828262
130.712000;119.830632
130.750000;119.831427
130.788000;119.832222
130.826000;119.830632
130.864000;119.829852
130.902000;119.828262
130.940000;119.829852
130.979000;119.828262
131.017000;119.831427
131.055000;119.829852
131.093000;119.829852
131.131000;119.829057
131.169000;119.831427
131.207000;119.829852
131.245000;119.831427
131.283000;119.830632
131.321000;119.827467
131.359000;119.828262
131.397000;119.829852
131.435000;119.829057
131.473000;119.829852
131.511000;119.829057
131.550000;119.825892
131.588000;119.828262
131.626000;119.829057
131.664000;119.829852
131.702000;119.827467
131.740000;119.828262
131.778000;119.829057
131.816000;119.831427
131.854000;119.831427
131.892000;119.830632
131.930000;119.828262
131.968000;119.829852
132.007000;119.831427
132.045000;119.830632
132.083000;119.832222
132.121000;119.829057
132.159000;119.829057
132.197000;119.831427
132.235000;119.826672
132.273000;119.829057
132.311000;119.827467
132.349000;119.827467
132.387000;119.828262
132.425000;119.829057
132.464000;119.830632
132.502000;100.512976
132.540000;-117.415211
132.578000;-120.031040
132.616000;-119.976367
132.654000;-119.962912
132.692000;-119.966872
132.730000;-119.977162
132.768000;-119.987466
132.806000;-119.993796
132.845000;-119.991426
132.883000;-119.989836
132.921000;-119.989041
132.959000;-119.987466
132.997000;-119.987466
133.035000;-119.987466
133.073000;-119.986671
133.111000;-119.981917
133.149000;-119.974792
133.187000;-119.966077
133.225000;-119.961322
133.263000;-119.954978
133.301000;-119.952608
133.340000;-119.947853
133.378000;-119.947853
133.416000;-119.944688
133.454000;-119.941523
133.492000;-119.939138
133.530000;-119.935178
133.568000;-119.933588
133.606000;-119.930424
133.644000;-119.924094
133.682000;-119.909034
133.720000;-119.854376
133.758000;-119.814763
133.796000;-119.813968
133.835000;-119.823477
133.873000;-119.835357
133.911000;-119.844867
133.949000;-119.856746
133.987000;-119.869421
134.025000;-119.878930
134.063000;-119.886850
134.101000;-119.891605
134.140000;-119.891605
134.178000;-119.892400
134.216000;-119.892400
134.254000;-119.892400
134.292000;-119.893195
134.330000;-119.893990
134.368000;-119.890810
134.406000;-119.891605
134.446000;-119.889235
134.484000;-119.891605
134.522000;-119.890030
134.560000;-119.891605
134.598000;-119.892400
134.636000;-119.890810
134.674000;-119.890810
134.712000;-119.891605
134.751000;-119.890810
134.789000;-119.890810
134.827000;-119.890030
134.865000;-119.890810
134.903000;-119.890810
134.941000;-119.889235
134.979000;-119.891605
135.017000;-119.892400
135.055000;-119.891605
135.093000;-119.890810
135.131000;-119.893195
135.169000;-119.891605
135.207000;-119.892400
135.245000;-119.891605
135.283000;-119.892400
135.321000;-119.889235
135.359000;-119.890810
135.398000;-119.890030
135.436000;-119.891605
135.474000;-119.893195
135.512000;-119.892400
135.550000;-119.890030
135.588000;-119.890810
135.626000;-119.890810
135.664000;-119.890810
135.702000;-119.892400
135.740000;-119.891605
135.779000;-119.891605
135.817000;-119.891605
135.855000;-119.892400
135.893000;-119.890810
135.931000;-119.890810
135.969000;-119.891605
136.007000;-119.890810
136.045000;-119.890030
136.083000;-119.890030
136.121000;-119.890030
136.159000;-119.891605
136.197000;-119.893990
136.235000;-119.892400
136.273000;-119.888440
136.311000;-119.890810
136.349000;-119.890810
136.388000;-119.892400
136.426000;-119.890030
136.464000;-119.890030
136.502000;-119.892400
136.540000;-119.890810
136.578000;-119.891605
136.616000;-119.890030
136.654000;-119.889235
136.692000;-119.889235
136.730000;-119.890810
136.768000;-119.891605
136.806000;-119.889235
136.844000;-119.889235
136.882000;-119.890810
136.921000;-119.890810
136.959000;-119.890810
136.997000;-119.890030
137.035000;-119.888440
137.073000;-119.887645
137.111000;-119.890030
137.149000;-119.891605
137.187000;-119.887645
137.225000;-119.889235
137.263000;-119.889235
137.301000;-119.888440
137.339000;-119.888440
137.378000;-119.888440
137.416000;-119.890030
137.454000;-119.889235
137.492000;-85.300414
137.530000;128.079010
137.568000;130.107025
137.606000;130.009589
137.644000;129.958096
137.682000;129.931172
137.720000;129.915317
137.758000;129.901848
137.796000;129.896313
137.834000;129.891558
137.872000;129.889968
137.910000;129.887598
137.948000;129.878088
137.986000;129.868579
138.024000;129.852739
138.062000;129.835310
138.101000;129.815511
138.139000;129.805206
138.177000;129.798081
138.216000;129.798861
138.254000;129.803616
138.292000;129.806001
138.330000;129.809961
138.368000;129.809961
138.406000;129.810756
138.444000;129.809166
138.482000;129.809166
138.520000;129.807576
138.558000;129.806001
138.596000;129.811536
138.634000;129.808371
138.672000;129.809166
138.710000;129.811536
138.750000;129.809961
138.788000;129.809961
138.826000;129.807576
138.864000;129.807576
138.902000;129.809961
138.940000;129.809961
138.979000;129.811536
139.017000;129.809166
139.055000;129.809166
139.093000;129.810756
139.131000;129.808371
139.169000;129.807576
139.207000;129.807576
139.245000;129.810756
139.283000;129.809961
139.321000;129.809961
139.361000;129.807576
139.399000;129.809166
139.437000;129.809166
139.476000;129.811536
139.514000;129.806796
139.552000;129.811536
139.590000;129.809961
139.628000;129.808371
139.666000;129.809961
139.704000;129.809166
139.742000;129.809166
139.780000;129.808371
139.818000;129.808371
139.856000;129.810756
139.894000;129.810756
139.932000;129.809166
139.971000;129.810756
140.009000;129.809166
140.047000;129.807576
140.085000;129.808371
140.123000;129.811536
140.161000;129.808371
140.199000;129.806001
140.237000;129.808371
140.275000;129.809166
140.313000;129.807576
140.351000;129.809166
140.389000;129.809166
140.428000;129.806796
140.466000;129.809961
140.504000;129.807576
140.542000;129.809166
140.580000;129.808371
140.618000;129.810756
140.656000;129.809961
140.694000;129.809961
140.732000;129.810756
140.770000;129.809166
140.808000;129.809961
140.846000;129.811536
140.884000;129.808371
140.922000;129.808371
140.960000;129.810756
140.998000;129.810756
141.036000;129.807576
141.075000;129.809166
141.113000;129.808371
141.151000;129.809166
141.189000;129.811536
141.227000;129.809166
141.265000;129.810756
141.303000;129.809166
141.341000;129.809166
141.379000;129.809961
141.417000;129.811536
141.455000;129.806001
141.493000;129.809166
141.531000;129.810756
141.569000;129.807576
141.607000;129.807576
141.646000;129.809166
141.684000;129.809166
141.722000;129.806796
141.760000;129.808371
141.798000;129.808371
141.836000;129.807576
141.874000;129.806001
141.912000;129.806796
141.950000;129.810756
141.988000;129.809961
142.026000;129.810756
142.064000;129.809166
142.103000;129.810756
142.141000;129.809166
142.179000;129.809961
142.217000;129.809166
142.255000;129.809961
142.293000;129.808371
142.331000;129.809961
142.369000;129.806001
142.407000;129.809166
142.445000;129.809961
142.483000;129.811536
142.521000;121.525150
142.559000;-115.799125
142.597000;-130.030123
142.635000;-129.958831
142.674000;-129.941401
142.712000;-129.942991
142.750000;-129.954076
142.788000;-129.965175
142.826000;-129.975465
142.864000;-129.978630
142.902000;-129.980220
142.940000;-129.978630
142.978000;-129.975465
143.016000;-129.976260
143.055000;-129.976260
143.093000;-129.973095
143.132000;-129.977055
143.170000;-129.974670
143.208000;-129.972300
143.246000;-129.965175
143.284000;-129.955666
143.322000;-129.949321
143.360000;-129.945361
143.398000;-129.939811
143.436000;-129.936646
143.475000;-129.935071
143.513000;-129.933481
143.551000;-129.928727
143.589000;-129.924767
143.627000;-129.923177
143.665000;-129.918422
143.703000;-129.917642
143.741000;-129.914462
143.779000;-129.909722
143.817000;-129.874069
143.855000;-129.809901
143.893000;-129.786922
143.931000;-129.790882
143.969000;-129.802761
144.007000;-129.813861
144.046000;-129.823370
144.084000;-129.836045
144.122000;-129.846335
144.160000;-129.857434
144.198000;-129.870109
144.236000;-129.874864
144.274000;-129.878823
144.312000;-129.878823
144.350000;-129.880398
144.388000;-129.877234
144.426000;-129.878028
144.464000;-129.877234
144.502000;-129.878028
144.541000;-129.875644
144.579000;-129.878823
144.617000;-129.879618
144.655000;-129.878028
144.693000;-129.879618
144.731000;-129.880398
144.769000;-129.879618
144.807000;-129.879618
144.845000;-129.880398
144.883000;-129.878823
144.921000;-129.877234
144.959000;-129.880398
144.997000;-129.880398
145.035000;-129.879618
145.074000;-129.878823
145.112000;-129.881193
145.150000;-129.879618
145.188000;-129.879618
145.226000;-129.879618
145.264000;-129.879618
145.302000;-129.878823
145.340000;-129.878823
145.379000;-129.878028
145.417000;-129.877234
145.455000;-129.876439
145.493000;-129.878028
145.531000;-129.880398
145.569000;-129.878823
145.607000;-129.878823
145.645000;-129.877234
145.683000;-129.878028
145.721000;-129.878823
145.759000;-129.879618
145.797000;-129.879618
145.835000;-129.879618
145.873000;-129.880398
145.911000;-129.879618
145.949000;-129.878823
145.987000;-129.879618
146.025000;-129.879618
146.063000;-129.878028
146.101000;-129.878028
146.140000;-129.879618
146.178000;-129.878028
146.216000;-129.880398
146.254000;-129.881193
146.292000;-129.880398
146.330000;-129.878823
146.368000;-129.878823
146.406000;-129.879618
146.444000;-129.878028
146.482000;-129.879618
146.520000;-129.879618
146.558000;-129.878823
146.596000;-129.878823
146.634000;-129.878823
146.673000;-129.877234
146.711000;-129.877234
146.749000;-129.877234
146.787000;-129.877234
146.825000;-129.878823
146.863000;-129.878028
146.901000;-129.877234
146.939000;-129.878028
146.977000;-129.877234
147.015000;-129.874864
147.053000;-129.878028
147.092000;-129.878028
147.130000;-129.878823
147.168000;-129.876439
147.206000;-129.878823
147.244000;-129.877234
147.282000;-129.876439
147.320000;-129.877234
147.358000;-129.878028
147.396000;-129.876439
147.434000;-129.874864
147.472000;-129.876439
147.510000;-129.874069
147.548000;48.527494
147.586000;140.117208
147.624000;140.062535
147.662000;139.973813
147.700000;139.927870
147.738000;139.905685
147.777000;139.889846
147.815000;139.880336
147.853000;139.879541
147.891000;139.875582
147.929000;139.875582
147.968000;139.870032
148.006000;139.862112
148.044000;139.850232
148.082000;139.837558
148.120000;139.821719
148.158000;139.803494
148.196000;139.785270
148.234000;139.778145
148.272000;139.778145
148.310000;139.782900
148.348000;139.786065
148.386000;139.786860
148.425000;139.790820
148.463000;139.790025
148.501000;139.788435
148.539000;139.788435
148.577000;139.788435
148.615000;139.790025
148.653000;139.793190
148.691000;139.788435
148.729000;139.789230
148.767000;139.790820
148.805000;139.790025
148.843000;139.792395
148.881000;139.790025
148.920000;139.790025
148.958000;139.787655
148.996000;139.789230
149.034000;139.790820
149.072000;139.790820
149.110000;139.790820
149.148000;139.789230
149.186000;139.787655
149.224000;139.789230
149.262000;139.790025
149.300000;139.789230
149.338000;139.786065
149.376000;139.788435
149.414000;139.790025
149.452000;139.786860
149.490000;139.790025
149.528000;139.790025
149.566000;139.783695
149.604000;139.790025
149.642000;139.788435
149.681000;139.790820
149.719000;139.789230
149.757000;139.786860
149.795000;139.787655
149.833000;139.788435
149.871000;139.786860
149.909000;139.790025
149.947000;139.790025
149.985000;139.788435
150.023000;139.786065
150.061000;139.790820
150.099000;139.790025
150.137000;139.786065
150.176000;139.787655
150.214000;139.785270
150.252000;139.789230
150.290000;139.789230
150.328000;139.788435
150.366000;139.790025
150.404000;139.790820
150.442000;139.788435
150.481000;139.787655
150.519000;139.790025
150.557000;139.788435
150.595000;139.790820
150.633000;139.788435
150.671000;139.790025
150.709000;139.789230
150.747000;139.786860
150.785000;139.787655
150.823000;139.790025
150.861000;139.790025
150.899000;139.790025
150.937000;139.787655
150.975000;139.789230
151.014000;139.790025
151.052000;139.789230
151.090000;139.786860
151.128000;139.790025
151.166000;139.786065
151.204000;139.787655
151.242000;139.786860
151.280000;139.789230
151.318000;139.786860
151.356000;139.782105
151.394000;139.786065
151.432000;139.785270
151.470000;139.786860
151.508000;139.789230
151.546000;139.789230
151.585000;139.787655
151.623000;139.787655
151.661000;139.786860
151.699000;139.784475
151.737000;139.784475
151.775000;139.787655
151.813000;139.788435
151.851000;139.788435
151.889000;139.789230
151.927000;139.786860
151.965000;139.786065
152.003000;139.784475
152.041000;139.786065
152.080000;139.787655
152.118000;139.786065
152.156000;139.784475
152.194000;139.788435
152.232000;139.787655
152.270000;139.790025
152.308000;139.787655
152.346000;139.788435
152.385000;139.787655
152.423000;139.787655
152.461000;139.787655
152.499000;139.787655
152.537000;55.743594
152.575000;-140.012572
152.613000;-139.991977
152.651000;-139.934139
152.689000;-139.923055
152.727000;-139.927810
152.765000;-139.937319
152.803000;-139.949994
152.841000;-139.961078
152.879000;-139.968203
152.917000;-139.968998
152.955000;-139.969793
152.993000;-139.968203
153.031000;-139.965833
153.069000;-139.965038
153.107000;-139.967423
153.146000;-139.965833
153.184000;-139.965833
153.222000;-139.967423
153.260000;-139.966628
153.298000;-139.965038
153.336000;-139.961873
153.374000;-139.953954
153.412000;-139.942074
153.450000;-139.932564
153.488000;-139.928605
153.527000;-139.925425
153.565000;-139.920685
153.603000;-139.920685
153.641000;-139.916710
153.679000;-139.914340
153.717000;-139.908790
153.755000;-139.907215
153.793000;-139.904036
153.831000;-139.904036
153.869000;-139.897706
153.907000;-139.888991
153.945000;-139.850172
153.984000;-139.780455
154.022000;-139.759861
154.060000;-139.768575
154.098000;-139.778085
154.136000;-139.789965
154.174000;-139.804229
154.212000;-139.814519
154.250000;-139.826413
154.288000;-139.835908
154.326000;-139.848583
154.364000;-139.859682
154.402000;-139.863642
154.441000;-139.869192
154.479000;-139.871562
154.517000;-139.870767
154.555000;-139.869192
154.593000;-139.869192
154.631000;-139.867602
154.669000;-139.868397
154.707000;-139.869192
154.745000;-139.869192
154.784000;-139.867602
154.822000;-139.868397
154.860000;-139.867602
154.898000;-139.869192
154.936000;-139.869192
154.974000;-139.869192
155.012000;-139.866807
155.050000;-139.867602
155.088000;-139.866807
155.126000;-139.866807
155.164000;-139.869192
155.202000;-139.868397
155.240000;-139.870767
155.279000;-139.866807
155.317000;-139.866012
155.355000;-139.866807
155.393000;-139.868397
155.431000;-139.869192
155.469000;-139.869972
155.507000;-139.866012
155.545000;-139.869192
155.584000;-139.868397
155.622000;-139.867602
155.660000;-139.868397
155.698000;-139.869972
155.736000;-139.868397
155.774000;-139.866807
155.812000;-139.866807
155.850000;-139.868397
155.888000;-139.867602
155.926000;-139.866807
155.964000;-139.866807
156.002000;-139.867602
156.040000;-139.869972
156.078000;-139.869972
156.117000;-139.869192
156.155000;-139.866012
156.193000;-139.869192
156.231000;-139.869192
156.269000;-139.867602
156.307000;-139.866807
156.345000;-139.864437
156.383000;-139.865217
156.421000;-139.867602
156.459000;-139.867602
156.497000;-139.869972
156.535000;-139.867602
156.574000;-139.869972
156.612000;-139.866807
156.650000;-139.869192
156.688000;-139.869192
156.726000;-139.868397
156.764000;-139.867602
156.802000;-139.866807
156.840000;-139.867602
156.878000;-139.867602
156.916000;-139.867602
156.954000;-139.868397
156.992000;-139.868397
157.030000;-139.869192
157.068000;-139.869192
157.107000;-139.867602
157.145000;-139.867602
157.183000;-139.868397
157.221000;-139.869192
157.259000;-139.868397
157.297000;-139.866807
157.335000;-139.866012
157.373000;-139.869192
157.411000;-139.867602
157.449000;-139.867602
157.487000;-138.929641
157.525000;-0.029309
157.564000;0.010305
157.602000;0.009510
157.640000;0.011085
157.678000;0.011880
157.716000;0.012675
157.754000;0.011085
157.792000;0.011085
157.830000;0.011085
157.868000;0.012675
157.906000;0.010305
157.944000;0.012675
157.983000;0.010305
158.021000;0.012675
158.059000;0.011085
158.097000;0.011085
158.135000;0.011085
158.173000;0.011085
158.211000;0.010305
158.249000;0.010305
158.287000;0.011880
158.325000;0.011085
158.363000;0.011880
158.401000;0.011880
158.439000;0.011085
158.477000;0.010305
158.515000;0.011085
158.553000;0.011085
158.591000;0.010305
158.629000;0.010305
158.667000;0.010305
158.705000;0.010305
158.743000;0.011085
158.782000;0.010305
158.820000;0.009510
158.858000;0.010305
158.896000;0.010305
158.934000;0.008715
158.972000;0.010305
159.010000;0.011085
159.048000;0.011880
159.086000;0.011085
159.124000;0.011085
159.162000;0.011085
159.200000;0.011085
159.238000;0.011085
159.276000;0.011085
159.314000;0.011085
159.352000;0.012675
159.390000;0.010305
159.429000;0.011085
159.467000;0.011085
159.505000;0.010305
159.543000;0.011085
159.581000;0.011880
159.619000;0.009510
159.657000;0.011085
159.695000;0.011085
159.733000;0.011085
159.771000;0.012675
159.809000;0.011085
159.847000;0.010305
159.885000;0.009510
159.923000;0.011085
159.961000;0.008715
159.999000;0.008715
160.037000;0.009510
160.076000;0.009510
160.114000;0.008715
160.152000;0.010305
160.190000;0.009510
160.228000;0.009510
160.266000;0.009510
160.304000;0.010305
160.342000;0.011085
160.380000;0.011085
160.418000;0.011880
160.456000;0.011085
160.494000;0.010305
160.532000;0.009510
160.570000;0.010305
160.608000;0.009510
160.646000;0.011085
160.685000;0.011085
160.723000;0.009510
160.761000;0.011085
160.799000;0.011880
160.837000;0.011880
160.875000;0.011085
160.913000;0.011880
160.951000;0.011880
160.989000;0.011880
161.027000;0.010305
161.065000;0.010305
161.103000;0.011085
161.141000;0.011880
161.179000;0.011880
161.217000;0.011085
161.255000;0.011085
161.293000;0.011880
161.331000;0.011085
161.369000;0.011880
161.408000;0.011880
161.446000;0.011085
161.484000;0.009510
161.522000;0.011085
161.560000;0.009510
161.598000;0.010305
161.636000;0.011085
161.674000;0.011085
161.712000;0.011085
161.750000;0.010305
161.788000;0.011085
161.826000;0.011880
161.864000;0.011085
161.902000;0.011085
161.940000;0.011880
161.979000;0.010305
162.017000;0.011880
162.055000;0.010305
162.093000;0.010305
162.131000;0.011085
162.169000;0.011085
162.207000;0.011880
162.245000;0.011880
162.283000;0.012675
162.321000;0.009510
162.359000;0.011085
162.397000;0.011880
162.435000;0.011085
162.473000;0.011880
162.511000;0.011085
162.549000;0.010305
162.587000;0.011085
162.625000;0.010305
162.663000;0.010305
162.701000;0.011085
162.739000;0.010305
162.778000;0.011085
162.816000;0.008715
162.854000;0.008715
162.892000;0.010305
162.930000;0.010305
162.968000;0.010305
163.006000;0.010305
163.044000;0.010305
163.082000;0.010305
163.120000;0.011085
163.158000;0.009510
163.196000;0.009510
163.234000;0.011085
163.272000;0.011085
163.310000;0.011085
163.348000;0.010305
163.386000;0.009510
163.425000;0.009510
163.463000;0.011880
163.501000;0.011085
163.539000;0.009510
163.577000;0.010305
163.615000;0.011085
163.653000;0.010305
163.691000;0.011085
163.729000;0.011085
163.767000;0.011085
163.805000;0.009510
163.843000;0.010305
163.881000;0.010305
163.919000;0.007920
163.957000;0.010305
163.995000;0.009510
164.033000;0.010305
164.072000;0.009510
164.110000;0.010305
164.148000;0.010305
164.186000;0.010305
164.224000;0.009510
164.262000;0.010305
164.300000;0.010305
164.338000;0.011085
164.376000;0.007125
164.414000;0.009510
164.452000;0.009510
164.490000;0.009510
164.529000;0.010305
164.567000;0.008715
164.605000;0.009510
164.643000;0.010305
164.681000;0.008715
164.719000;0.009510
164.757000;0.009510
164.795000;0.009510
164.833000;0.008715
164.871000;0.010305
164.909000;0.009510
164.947000;0.008715
164.985000;0.009510
165.023000;0.008715
165.061000;0.010305
165.099000;0.009510
165.138000;0.009510
165.176000;0.009510
165.214000;0.010305
165.252000;0.009510
165.290000;0.011085
165.328000;0.009510
165.366000;0.009510
165.404000;0.009510
165.442000;0.009510
165.480000;0.009510
165.518000;0.010305
165.556000;0.009510
165.595000;0.010305
165.633000;0.010305
165.670000;0.010305
165.708000;0.010305
165.747000;0.011085
165.785000;0.010305
165.823000;0.010305
165.861000;0.010305
165.899000;0.010305
165.937000;0.011085
165.975000;0.011085
166.013000;0.011085
166.051000;0.010305
166.089000;0.010305
166.127000;0.009510
166.165000;0.011880
166.203000;0.011085
166.241000;0.008715
166.279000;0.010305
166.317000;0.011085
166.355000;0.010305
166.394000;0.011085
166.432000;0.010305
166.470000;0.009510
166.508000;0.010305
166.546000;0.010305
166.584000;0.010305
166.622000;0.010305
166.660000;0.011085
166.698000;0.010305
166.736000;0.011880
166.774000;0.009510
166.812000;0.009510
166.851000;0.009510
166.889000;0.009510
166.927000;0.009510
166.965000;0.008715
167.003000;0.008715
167.041000;0.010305
167.079000;0.009510
167.117000;0.007920
167.155000;0.010305
167.193000;0.009510
167.231000;0.008715
167.269000;0.010305
167.307000;0.009510
167.345000;0.010305
167.383000;0.010305
167.421000;0.011085
167.459000;0.010305
167.497000;0.010305
167.535000;0.011085
167.574000;0.011085
167.612000;0.011085
167.650000;0.011085
167.688000;0.011085
167.726000;0.011085
167.764000;0.011085
167.802000;0.010305
167.840000;0.011880
167.878000;0.010305
167.916000;0.011085
167.954000;0.011085
167.992000;0.011085
168.030000;0.010305
168.068000;0.011085
168.106000;0.011085
168.144000;0.011085
168.183000;0.011085
168.221000;0.009510
168.259000;0.010305
168.297000;0.009510
168.335000;0.011085
168.373000;0.011085
168.411000;0.011085
168.449000;0.011085
168.487000;0.009510
168.525000;0.010305
168.563000;0.011085
168.601000;0.011085
168.639000;0.010305
168.677000;0.010305
168.715000;0.010305
168.753000;0.010305
168.791000;0.010305
168.829000;0.011085
168.867000;0.009510
168.906000;0.010305
168.944000;0.009510
168.982000;0.009510
169.020000;0.011085
169.058000;0.009510
169.096000;0.009510
169.134000;0.009510
169.172000;0.009510
169.210000;0.011880
169.248000;0.009510
169.286000;0.009510
169.324000;0.009510
169.362000;0.009510
169.400000;0.009510
169.438000;0.011085
169.476000;0.010305
169.515000;0.009510
169.553000;0.009510
169.590000;0.011085
169.628000;0.011085
169.666000;0.011085
169.705000;0.011085
169.743000;0.011085
169.781000;0.011085
169.819000;0.010305
169.857000;0.010305
169.895000;0.011880
169.933000;0.011880
169.971000;0.011880
170.009000;0.011085
170.047000;0.011085
170.085000;0.011880
170.123000;0.011880
170.161000;0.011880
170.199000;0.011880
170.237000;0.012675
170.275000;0.011880
170.313000;0.011085
170.352000;0.011085
170.390000;0.010305
170.428000;0.011085
170.466000;0.010305
170.504000;0.010305
170.542000;0.011085
170.580000;0.010305
170.618000;0.010305
170.656000;0.010305
170.694000;0.010305
170.732000;0.009510
170.770000;0.009510
170.808000;0.010305
170.847000;0.010305
170.885000;0.011085
170.923000;0.010305
170.961000;0.011880
170.999000;0.009510
171.037000;0.010305
171.075000;0.009510
171.113000;0.010305
171.151000;0.009510
171.189000;0.010305
171.227000;0.008715
171.265000;0.010305
171.303000;0.011085
171.341000;0.010305
171.379000;0.010305
171.417000;0.010305
171.455000;0.011085
171.493000;0.010305
171.531000;0.011085
171.570000;0.010305
171.608000;0.011085
171.646000;0.010305
171.684000;0.010305
171.722000;0.011085
171.760000;0.011880
171.798000;0.009510
171.836000;0.011085
171.874000;0.011085
171.912000;0.011880
171.950000;0.011880
171.988000;0.008715
172.026000;0.009510
172.064000;0.010305
172.102000;0.009510
172.140000;0.010305
172.178000;0.011880
172.216000;0.011085
172.254000;0.011085
172.292000;0.010305
172.330000;0.010305
172.369000;0.011085
172.407000;0.010305
172.445000;0.011085
172.483000;0.010305
172.521000;0.010305
172.559000;0.011085
172.597000;0.011085
172.635000;0.009510
172.673000;0.011085
172.711000;0.011085
172.749000;0.009510
172.787000;0.010305
172.825000;0.011085
172.863000;0.011085
172.902000;0.011880
172.940000;0.011085
172.978000;0.010305
173.016000;0.011085
173.054000;0.011085
173.092000;0.010305
173.130000;0.010305
173.168000;0.009510
173.206000;0.011085
173.244000;0.011085
173.282000;0.011085
173.320000;0.011085
173.358000;0.011085
173.396000;0.010305
173.435000;0.011880
173.473000;0.011085
173.511000;0.010305
173.549000;0.011085
173.587000;0.009510
173.625000;0.009510
173.663000;0.010305
173.701000;0.011085
173.739000;0.011085
173.777000;0.010305
173.815000;0.010305
173.853000;0.010305
173.891000;0.011085
173.929000;0.011880
173.967000;0.011085
174.005000;0.011085
174.043000;0.011085
174.082000;0.010305
174.120000;0.011085
174.158000;0.010305
174.196000;0.010305
174.234000;0.010305
174.272000;0.010305
174.310000;0.010305
174.348000;0.011085
174.386000;0.010305
174.424000;0.011880
174.462000;0.011085
174.500000;0.011085
174.538000;0.010305
174.576000;0.011085
174.614000;0.010305
174.652000;0.010305
174.690000;0.011085
174.728000;0.010305
174.767000;0.010305
174.805000;0.011085
174.843000;0.010305
174.881000;0.009510
174.919000;0.010305
174.957000;0.010305
174.995000;0.011085
175.033000;0.009510
175.071000;0.008715
175.109000;0.010305
175.147000;0.009510
175.185000;0.009510
175.223000;0.009510
175.261000;0.008715
175.299000;0.009510
175.337000;0.009510
175.375000;0.010305
175.414000;0.009510
175.452000;0.008715
175.490000;0.011085
175.528000;0.009510
175.566000;0.008715
175.604000;0.007920
175.642000;0.007920
175.680000;0.008715
175.718000;0.009510
175.756000;0.010305
175.794000;0.010305
175.832000;0.009510
175.870000;0.010305
175.908000;0.010305
175.946000;0.011085
175.985000;0.010305
176.023000;0.010305
176.061000;0.009510
176.099000;0.010305
176.137000;0.009510
176.175000;0.009510
176.213000;0.009510
176.251000;0.011085
176.289000;0.009510
176.327000;0.011085
176.366000;0.011085
176.404000;0.011880
176.442000;0.009510
176.480000;0.010305
176.518000;0.010305
176.556000;0.011085
176.595000;0.010305
176.633000;0.009510
176.671000;0.010305
176.709000;0.011085
176.747000;0.010305
176.785000;0.010305
176.823000;0.010305
176.861000;0.010305
176.899000;0.010305
176.937000;0.010305
176.975000;0.010305
177.013000;0.010305
177.051000;0.011085
177.089000;0.009510
177.127000;0.011880
177.166000;0.010305
177.205000;0.009510
177.243000;0.009510
177.281000;0.009510
177.319000;0.010305
177.357000;0.011880
177.395000;0.011085
177.433000;0.009510
177.472000;0.010305
177.510000;0.010305
177.548000;0.009510
177.586000;0.010305
177.624000;0.010305
177.662000;0.011085
177.700000;0.010305
177.738000;0.010305
177.776000;0.010305
177.814000;0.011085
177.852000;0.011085
177.890000;0.011085
177.928000;0.011085
177.966000;0.010305
178.004000;0.009510
178.042000;0.010305
178.080000;0.009510
178.118000;0.009510
178.156000;0.011085
178.194000;0.010305
178.232000;0.010305
178.271000;0.011085
178.309000;0.010305
178.347000;0.008715
178.385000;0.009510
178.423000;0.009510
178.461000;0.008715
178.499000;0.010305
178.537000;0.009510
178.575000;0.011085
178.613000;0.009510
178.651000;0.009510
178.689000;0.011085
178.727000;0.010305
178.765000;0.010305
178.803000;0.011085
178.841000;0.011085
178.879000;0.009510
178.917000;0.010305
178.955000;0.011880
178.993000;0.010305
179.032000;0.011085
179.070000;0.011085
179.108000;0.010305
179.146000;0.010305
179.184000;0.009510
179.222000;0.009510
179.260000;0.011085
179.298000;0.011085
179.336000;0.011085
179.374000;0.009510
179.412000;0.011085
179.450000;0.010305
179.488000;0.010305
179.526000;0.009510
179.565000;0.011085
179.603000;0.011085
179.641000;0.011085
179.679000;0.010305
179.717000;0.010305
179.755000;0.009510
179.793000;0.011085
179.831000;0.009510
179.869000;0.010305
179.907000;0.009510
179.945000;0.011085
179.983000;0.009510
180.021000;0.010305
180.059000;0.010305
180.097000;0.009510
180.135000;0.009510
180.173000;0.010305
180.211000;0.010305
180.250000;0.011085
180.288000;0.011085
180.326000;0.009510
180.364000;0.009510
180.402000;0.009510
180.440000;0.010305
180.478000;0.011085
180.516000;0.011085
180.554000;0.010305
180.592000;0.011880
180.630000;0.011880
180.668000;0.009510
180.706000;0.011880
180.744000;0.009510
180.783000;0.011085
180.821000;0.011085
180.859000;0.010305
180.898000;0.010305
180.936000;0.010305
180.974000;0.010305
181.012000;0.009510
181.050000;0.009510
181.088000;0.010305
181.126000;0.010305
181.164000;0.009510
181.202000;0.010305
181.240000;0.011085
181.278000;0.011085
181.316000;0.010305
181.354000;0.010305
181.392000;0.010305
181.430000;0.010305
181.469000;0.011085
181.509000;0.010305
181.547000;0.011085
181.585000;0.011085
181.623000;0.008715
181.661000;0.010305
181.699000;0.010305
181.737000;0.011085
181.775000;0.009510
181.813000;0.009510
181.851000;0.008715
181.889000;0.011085
181.927000;0.010305
181.965000;0.009510
182.003000;0.009510
182.041000;0.010305
182.080000;0.011085
182.118000;0.009510
182.156000;0.009510
182.194000;0.009510
182.232000;0.009510
182.270000;0.009510
182.308000;0.009510
182.346000;0.009510
182.384000;0.009510
182.422000;0.009510
182.460000;0.009510
182.498000;0.008715
182.536000;0.009510
182.575000;0.009510
182.613000;0.008715
182.651000;0.010305
182.689000;0.008715
182.729000;0.009510
182.767000;0.008715
182.805000;0.009510
182.843000;0.010305
182.881000;0.011085
182.919000;0.011085
182.957000;0.011085
182.995000;0.012675
183.033000;0.011085
183.072000;0.010305
183.110000;0.011085
183.148000;0.010305
183.186000;0.010305
183.224000;0.009510
183.262000;0.009510
183.300000;0.010305
183.338000;0.011085
183.376000;0.011085
183.414000;0.009510
183.452000;0.011085
183.490000;0.009510
183.528000;0.010305
183.566000;0.009510
183.604000;0.008715
183.642000;0.008715
183.680000;0.009510
183.718000;0.010305
183.756000;0.010305
183.794000;0.011085
183.832000;0.010305
183.871000;0.011880
183.909000;0.010305
183.947000;0.010305
183.985000;0.011085
184.023000;0.010305
184.061000;0.010305
184.099000;0.011085
184.137000;0.011085
184.175000;0.011085
184.213000;0.011085
184.251000;0.011085
184.289000;0.011085
184.327000;0.009510
184.365000;0.011085
184.404000;0.011085
184.442000;0.011085
184.480000;0.010305
184.518000;0.010305
184.556000;0.011085
184.594000;0.009510
184.632000;0.010305
184.670000;0.011880
184.708000;0.011880
184.746000;0.010305
184.784000;0.008715
184.822000;0.010305
184.860000;0.011085
184.898000;0.010305
184.936000;0.011085
184.974000;0.011085
185.012000;0.010305
185.050000;0.009510
185.088000;0.009510
185.126000;0.011085
185.164000;0.011085
185.203000;0.010305
185.241000;0.011880
185.279000;0.011085
185.317000;0.011085
185.355000;0.011085
185.393000;0.011085
185.431000;0.010305
185.469000;0.010305
185.507000;0.010305
185.545000;0.010305
185.584000;0.011085
185.622000;0.010305
185.660000;0.009510
185.698000;0.010305
185.736000;0.010305
185.774000;0.011085
185.812000;0.010305
185.850000;0.011085
185.888000;0.009510
185.926000;0.011880
185.964000;0.009510
186.002000;0.010305
186.040000;0.011085
186.078000;0.009510
186.116000;0.011085
186.154000;0.011085
186.192000;0.009510
186.230000;0.009510
186.269000;0.010305
186.307000;0.011085
186.345000;0.011085
186.383000;0.011085
186.421000;0.009510
186.459000;0.010305
186.497000;0.009510
186.535000;0.009510
186.573000;0.011085
186.611000;0.009510
186.649000;0.011085
186.687000;0.010305
186.725000;0.008715
186.763000;0.010305
186.801000;0.011085
186.839000;0.010305
186.877000;0.011085
186.916000;0.011085
186.954000;0.010305
186.992000;0.009510
187.030000;0.011085
187.068000;0.011085
187.106000;0.010305
187.144000;0.010305
187.182000;0.010305
187.220000;0.010305
187.258000;0.009510
187.296000;0.008715
187.334000;0.009510
187.372000;0.010305
187.410000;0.011085
187.448000;0.010305
187.486000;0.011085
187.525000;0.009510
187.563000;0.011085
187.601000;0.011085
187.639000;0.011085
187.677000;0.009510
187.715000;0.010305
187.753000;0.009510
187.791000;0.009510
187.829000;0.010305
187.868000;0.011085
187.906000;0.011880
187.944000;0.011880
187.982000;0.010305
188.020000;0.010305
188.058000;0.011085
188.096000;0.012675
188.134000;0.011085
188.172000;0.011085
188.210000;0.011085
188.248000;0.010305
188.286000;0.009510
188.324000;0.008715
188.363000;0.008715
188.401000;0.011085
188.439000;0.010305
188.477000;0.010305
188.515000;0.010305
188.553000;0.010305
188.591000;0.009510
188.629000;0.010305
188.667000;0.009510
188.705000;0.008715
188.743000;0.009510
188.781000;0.010305
188.819000;0.009510
188.857000;0.009510
188.895000;0.010305
188.935000;0.008715
188.973000;0.010305
189.011000;0.009510
189.049000;0.008715
189.087000;0.008715
189.125000;0.007920
189.163000;0.007125
189.201000;0.007920
189.240000;0.007920
189.278000;0.009510
189.316000;0.009510
189.354000;0.009510
189.392000;0.009510
189.430000;0.009510
189.468000;0.009510
189.506000;0.009510
189.544000;0.009510
189.582000;0.010305
189.620000;0.010305
189.658000;0.011085
189.696000;0.010305
189.734000;0.011085
189.772000;0.009510
189.810000;0.007920
189.848000;0.008715
189.886000;0.009510
189.924000;0.008715
189.963000;0.008715
190.001000;0.009510
190.039000;0.009510
190.077000;0.010305
190.115000;0.009510
190.153000;0.009510
190.191000;0.011085
190.229000;0.009510
190.267000;0.010305
190.305000;0.011085
190.343000;0.010305
190.381000;0.009510
190.420000;0.011085
190.458000;0.009510
190.496000;0.010305
190.534000;0.009510
190.572000;0.011085
190.610000;0.010305
190.648000;0.010305
190.686000;0.010305
190.724000;0.009510
190.762000;0.010305
190.800000;0.011085
190.838000;0.009510
190.876000;0.010305
190.914000;0.010305
190.952000;0.011085
190.990000;0.010305
191.028000;0.011085
191.067000;0.009510
191.105000;0.009510
191.143000;0.009510
191.181000;0.011085
191.219000;0.011085
191.257000;0.011085
191.295000;0.011085
191.333000;0.010305
191.371000;0.009510
191.409000;0.010305
191.447000;0.010305
191.485000;0.011085
191.523000;0.009510
191.561000;0.009510
191.599000;0.010305
191.637000;0.009510
191.676000;0.011880
191.714000;0.010305
191.752000;0.009510
191.790000;0.009510
191.828000;0.009510
191.866000;0.009510
191.904000;0.011085
191.942000;0.011085
191.980000;0.011085
192.018000;0.009510
192.056000;0.010305
192.094000;0.011085
192.132000;0.010305
192.170000;0.009510
192.208000;0.010305
192.246000;0.009510
192.285000;0.010305
192.323000;0.010305
192.361000;0.011085
192.399000;0.009510
192.437000;0.011085
192.475000;0.010305
192.513000;0.009510
192.551000;0.009510
192.589000;0.009510
192.627000;0.011085
192.665000;0.009510
192.703000;0.011880
192.742000;0.010305
192.780000;0.010305
192.818000;0.011085
192.856000;0.011085
192.894000;0.009510
192.932000;0.009510
192.970000;0.010305
193.008000;0.011085
193.046000;0.011085
193.084000;0.011085
193.122000;0.011085
193.160000;0.011085
193.198000;0.011085
193.236000;0.010305
193.274000;0.011085
193.312000;0.011085
193.350000;0.010305
193.388000;0.010305
193.426000;0.009510
193.465000;0.009510
193.503000;0.010305
193.541000;0.009510
193.579000;0.009510
193.617000;0.011085
193.655000;0.009510
193.693000;0.010305
193.731000;0.009510
193.769000;0.009510
193.807000;0.009510
193.845000;0.011085
193.883000;0.011085
193.921000;0.011880
193.959000;0.010305
193.998000;0.011085
194.036000;0.011880
194.074000;0.011085
194.112000;0.010305
194.150000;0.011085
194.188000;0.011085
194.226000;0.010305
194.264000;0.010305
194.302000;0.011085
194.340000;0.010305
194.378000;0.009510
194.416000;0.010305
194.454000;0.010305
194.492000;0.009510
194.531000;0.009510
194.569000;0.010305
194.607000;0.010305
194.645000;0.010305
194.683000;0.009510
194.721000;0.009510
194.759000;0.011085
194.797000;0.009510
194.835000;0.010305
194.873000;0.010305
194.911000;0.011085
194.949000;0.010305
194.987000;0.011085
195.025000;0.010305
195.063000;0.010305
195.101000;0.010305
195.139000;0.010305
195.177000;0.011085
195.215000;0.010305
195.253000;0.011880
195.291000;0.011085
195.330000;0.011880
195.368000;0.010305
195.406000;0.011085
195.444000;0.010305
195.482000;0.010305
195.520000;0.011085
195.558000;0.009510
195.596000;0.009510
195.634000;0.011880
195.672000;0.011085
195.710000;0.010305
195.748000;0.011085
195.786000;0.009510
195.824000;0.010305
195.863000;0.011085
195.901000;0.011085
195.939000;0.010305
195.977000;0.011085
196.015000;0.011085
196.053000;0.011085
196.091000;0.010305
196.129000;0.011880
196.167000;0.010305
196.205000;0.011085
196.243000;0.011880
196.281000;0.011085
196.319000;0.011085
196.357000;0.011085
196.395000;0.011085
196.433000;0.011085
196.471000;0.010305
196.509000;0.011880
196.547000;0.010305
196.585000;0.010305
196.623000;0.010305
196.662000;0.010305
196.700000;0.010305
196.738000;0.010305
196.776000;0.007920
196.814000;0.011085
196.852000;0.009510
196.890000;0.010305
196.928000;0.011085
196.966000;0.009510
197.004000;0.011085
197.042000;0.009510
197.080000;0.008715
197.118000;0.011085
197.157000;0.009510
197.195000;0.009510
197.233000;0.010305
197.271000;0.008715
197.309000;0.009510
197.347000;0.009510
197.385000;0.007920
197.423000;0.007920
197.461000;0.008715
197.500000;0.007920
197.538000;0.009510
197.576000;0.011085
197.614000;0.011085
197.652000;0.010305
197.690000;0.011085
197.728000;0.011085
197.766000;0.010305
197.804000;0.010305
197.842000;0.011880
197.880000;0.010305
197.918000;0.011880
197.956000;0.011880
197.994000;0.011880
198.032000;0.011880
198.070000;0.009510
198.108000;0.011085
198.146000;0.011085
198.184000;0.010305
198.222000;0.011085
198.261000;0.009510
198.299000;0.011085
198.337000;0.011085
198.375000;0.010305
198.413000;0.010305
198.451000;0.010305
198.489000;0.010305
198.527000;0.010305
198.565000;0.010305
198.603000;0.011085
198.641000;0.011085
198.679000;0.011085
198.717000;0.009510
198.755000;0.009510
198.793000;0.011085
198.831000;0.011085
198.869000;0.011085
198.907000;0.011085
198.945000;0.011880
198.983000;0.011880
199.021000;0.010305
199.060000;0.011880
199.098000;0.011085
199.136000;0.011085
199.174000;0.011880
199.212000;0.011085
199.250000;0.011085
199.288000;0.011085
199.326000;0.011085
199.364000;0.011085
199.402000;0.011085
199.440000;0.010305
199.478000;0.009510
199.516000;0.010305
199.554000;0.009510
199.592000;0.009510
199.631000;0.010305
199.669000;0.009510
199.707000;0.011085
199.745000;0.011085
199.783000;0.010305
199.821000;0.010305
199.859000;0.010305
199.897000;0.009510
199.935000;0.010305
199.973000;0.011085
200.011000;0.010305
200.049000;0.011085
200.087000;0.010305
200.125000;0.009510
200.163000;0.011085
200.201000;0.009510
200.239000;0.010305
200.277000;0.011085
200.315000;0.010305
200.354000;0.010305
200.392000;0.011085
200.430000;0.011085
200.468000;0.011085
200.506000;0.011085
200.544000;0.011085
200.582000;0.010305
200.620000;0.011085
200.658000;0.011880
200.696000;0.012675
200.734000;0.011085
200.772000;0.009510
200.810000;0.011880
200.848000;0.011085
200.886000;0.011085
200.924000;0.011085
200.963000;0.011085
201.001000;0.011880
201.039000;0.011085
201.077000;0.009510
201.115000;0.009510
201.153000;0.010305
201.191000;0.011085
201.229000;0.011085
201.267000;0.011085
201.305000;0.011085
201.343000;0.009510
201.381000;0.010305
201.419000;0.011085
201.458000;0.011085
201.496000;0.011085
201.534000;0.009510
201.572000;0.009510
201.610000;0.009510
201.648000;0.009510
201.686000;0.009510
201.724000;0.010305
201.762000;0.010305
201.800000;0.009510
201.838000;0.009510
201.876000;0.009510
201.914000;0.011085
201.952000;0.009510
201.990000;0.010305
202.028000;0.008715
202.066000;0.008715
202.104000;0.011085
202.142000;0.011085
202.180000;0.011085
202.218000;0.010305
202.257000;0.009510
202.295000;0.009510
202.333000;0.010305
202.371000;0.008715
202.409000;0.009510
202.447000;0.009510
202.485000;0.008715
202.523000;0.011085
202.561000;0.009510
202.599000;0.009510
202.637000;0.009510
202.675000;0.008715
202.713000;0.009510
202.752000;0.009510
202.790000;0.011085
202.828000;0.010305
202.866000;0.010305
202.904000;0.010305
202.942000;0.011085
202.980000;0.010305
203.018000;0.010305
203.056000;0.009510
203.094000;0.010305
203.132000;0.011085
203.170000;0.010305
203.208000;0.011085
203.246000;0.010305
203.284000;0.010305
203.322000;0.010305
203.360000;0.009510
203.398000;0.009510
203.436000;0.008715
203.475000;0.007920
203.513000;0.008715
203.551000;0.009510
203.589000;0.008715
203.627000;0.009510
203.665000;0.007920
203.703000;0.008715
203.741000;0.009510
203.779000;0.009510
203.817000;0.007920
203.855000;0.009510
203.893000;0.008715
203.931000;0.010305
203.969000;0.010305
204.008000;0.010305
204.046000;0.010305
204.084000;0.011085
204.122000;0.010305
204.160000;0.010305
204.198000;0.009510
204.236000;0.009510
204.274000;0.010305
204.312000;0.010305
204.350000;0.009510
204.388000;0.011880
204.426000;0.011880
204.464000;0.011880
204.502000;0.011085
204.540000;0.010305
204.578000;0.010305
204.616000;0.011085
204.655000;0.011085
204.693000;0.011085
204.731000;0.010305
204.769000;0.011085
204.807000;0.009510
204.845000;0.011085
204.883000;0.011085
204.921000;0.011085
204.959000;0.011880
204.997000;0.011880
205.035000;0.011085
205.073000;0.010305
205.111000;0.010305
205.149000;0.011880
205.187000;0.011085
205.225000;0.011880
205.263000;0.011085
205.301000;0.009510
205.339000;0.011085
205.377000;0.011880
205.415000;0.010305
205.454000;0.009510
205.492000;0.010305
205.530000;0.010305
205.568000;0.011085
205.606000;0.011085
205.644000;0.011085
205.682000;0.011085
205.720000;0.011085
205.758000;0.010305
205.796000;0.009510
205.834000;0.011085
205.872000;0.010305
205.910000;0.011085
205.948000;0.011085
205.986000;0.011085
206.024000;0.010305
206.062000;0.009510
206.100000;0.011085
206.138000;0.009510
206.176000;0.010305
206.214000;0.011085
206.253000;0.011085
206.291000;0.011085
206.329000;0.011880
206.367000;0.011085
206.405000;0.010305
206.443000;0.011880
206.481000;0.010305
206.519000;0.011085
206.557000;0.010305
206.595000;0.010305
206.633000;0.010305
206.671000;0.011880
206.709000;0.011880
206.748000;0.011085
206.786000;0.011085
206.824000;0.010305
206.862000;0.011880
206.900000;0.011880
206.938000;0.011085
206.976000;0.011880
207.014000;0.011880
207.052000;0.011085
207.090000;0.011880
207.128000;0.011085
207.166000;0.011085
207.204000;0.012675
207.242000;0.009510
207.280000;0.011880
207.318000;0.011085
207.356000;0.009510
207.395000;0.011085
207.433000;0.009510
207.471000;0.010305
207.509000;0.010305
207.547000;0.010305
207.585000;0.010305
207.623000;0.011880
207.661000;0.011880
207.699000;0.011085
207.737000;0.011085
207.775000;0.011880
207.813000;0.010305
207.852000;0.011880
207.890000;0.010305
207.928000;0.011880
207.966000;0.010305
208.004000;0.011085
208.042000;0.010305
208.080000;0.010305
208.118000;0.011085
208.156000;0.011085
208.194000;0.011880
208.232000;0.010305
208.270000;0.011085
208.308000;0.011085
208.346000;0.011085
208.384000;0.011085
208.422000;0.011880
208.460000;0.011880
208.498000;0.012675
208.537000;0.011085
208.575000;0.011880
208.612000;0.012675
208.651000;0.011880
208.689000;0.011880
208.727000;0.010305
208.765000;0.011085
208.803000;0.010305
208.841000;0.010305
208.879000;0.009510
208.917000;0.011085
208.955000;0.011085
208.993000;0.010305
209.031000;0.011085
209.069000;0.009510
209.107000;0.011085
209.145000;0.010305
209.183000;0.011880
209.221000;0.011880
209.259000;0.011880
209.297000;0.011085
209.335000;0.010305
209.373000;0.011085
209.411000;0.010305
209.450000;0.012675
209.488000;0.011085
209.526000;0.011085
209.564000;0.011880
209.602000;0.010305
209.640000;0.011085
209.678000;0.011085
209.716000;0.010305
209.754000;0.010305
209.792000;0.010305
209.830000;0.009510
209.868000;0.009510
209.906000;0.010305
209.944000;0.009510
209.982000;0.011085
210.020000;0.009510
210.058000;0.011085
210.096000;0.011880
210.134000;0.011085
210.172000;0.011880
210.210000;0.011880
210.249000;0.010305
210.287000;0.011085
210.325000;0.010305
210.363000;0.010305
210.401000;0.011085
210.439000;0.011880
210.477000;0.011880
210.515000;0.011085
210.553000;0.011085
210.591000;0.010305
210.629000;0.010305
210.667000;0.011085
210.705000;0.011085
210.744000;0.011880
210.782000;0.011085
210.820000;0.011880
210.858000;0.012675
210.896000;0.011880
210.934000;0.011880
210.972000;0.011880
211.010000;0.011085
211.048000;0.011880
211.086000;0.012675
211.124000;0.012675
211.162000;0.011880
211.200000;0.010305
211.238000;0.011085
211.276000;0.011880
211.314000;0.011880
211.352000;0.011880
211.391000;0.012675
211.429000;0.011880
211.467000;0.011880
211.505000;0.012675
211.543000;0.013470
211.581000;0.013470
211.619000;0.012675
211.657000;0.012675
211.695000;0.011880
211.733000;0.011085
211.771000;0.012675
211.809000;0.011880
211.848000;0.012675
211.886000;0.011880
211.924000;0.011085
211.962000;0.011085
212.000000;0.012675
212.038000;0.011880
212.076000;0.013470
212.114000;0.012675
212.152000;0.011085
212.190000;0.012675
212.228000;0.013470
212.266000;0.012675
212.304000;0.011880
212.342000;0.011880
212.380000;0.011880
212.418000;0.011085
212.456000;0.012675
212.494000;0.009510
212.532000;0.011880
212.570000;0.011880
212.608000;0.009510
212.647000;0.011085
212.685000;0.010305
212.723000;0.011085
212.761000;0.011085
212.799000;0.011085
212.837000;0.011085
212.875000;0.011085
212.913000;0.010305
212.952000;0.012675
212.990000;0.011085
213.028000;0.011880
213.066000;0.011880
213.104000;0.010305
213.142000;0.011085
213.180000;0.010305
213.218000;0.010305
213.256000;0.012675
213.294000;0.011085
213.332000;0.011085
213.370000;0.011880
213.408000;0.011085
213.446000;0.010305
213.484000;0.010305
213.522000;0.009510
213.560000;0.010305
213.598000;0.011085
213.636000;0.009510
213.674000;0.011085
213.712000;0.010305
213.751000;0.010305
213.789000;0.010305
213.827000;0.010305
213.865000;0.010305
213.903000;0.011085
213.941000;0.010305
213.979000;0.010305
214.017000;0.011085
214.055000;0.010305
214.093000;0.010305
214.131000;0.010305
214.169000;0.010305
214.207000;0.010305
214.246000;0.009510
214.284000;0.009510
214.322000;0.010305
214.360000;0.011085
214.398000;0.010305
214.436000;0.008715
214.474000;0.010305
214.512000;0.010305
214.550000;0.011085
214.588000;0.011880
214.626000;0.010305
214.664000;0.009510
214.702000;0.010305
214.740000;0.011085
214.778000;0.010305
214.816000;0.010305
214.854000;0.010305
214.892000;0.010305
214.930000;0.011085
214.969000;0.011085
215.007000;0.011085
215.045000;0.010305
215.083000;0.008715
215.121000;0.010305
215.159000;0.010305
215.197000;0.009510
215.235000;0.010305
215.273000;0.010305
215.311000;0.011085
215.349000;0.009510
215.387000;0.009510
215.426000;0.009510
215.464000;0.010305
215.502000;0.009510
215.540000;0.010305
215.578000;0.008715
215.616000;0.010305
215.654000;0.011085
215.692000;0.010305
215.730000;0.010305
215.768000;0.011085
215.806000;0.010305
215.844000;0.011085
215.882000;0.011085
215.920000;0.010305
215.958000;0.010305
215.996000;0.009510
216.034000;0.009510
216.072000;0.009510
216.110000;0.011085
216.149000;0.011085
216.187000;0.010305
216.225000;0.009510
216.263000;0.011085
216.301000;0.011085
216.339000;0.010305
216.377000;0.008715
216.415000;0.008715
216.453000;0.010305
216.491000;0.011085
216.529000;0.010305
216.567000;0.011880
216.605000;0.010305
216.643000;0.011085
216.681000;0.011085
216.720000;0.011085
216.758000;0.010305
216.796000;0.008715
216.834000;0.009510
216.872000;0.010305
216.910000;0.011085
216.948000;0.010305
216.986000;0.010305
217.024000;0.011085
217.062000;0.010305
217.100000;0.009510
217.138000;0.010305
217.176000;0.010305
217.214000;0.010305
217.252000;0.011085
217.290000;0.010305
217.328000;0.010305
217.366000;0.010305
217.404000;0.011085
217.442000;0.009510
217.481000;0.009510
217.519000;0.008715
217.557000;0.010305
217.595000;0.010305
217.633000;0.011085
217.671000;0.011880
217.709000;0.011085
217.747000;0.009510
217.785000;0.010305
217.823000;0.011085
217.861000;0.010305
217.899000;0.011085
217.937000;0.011085
217.975000;0.009510
218.013000;0.009510
218.051000;0.011085
218.090000;0.010305
218.128000;0.012675
218.166000;0.011085
218.204000;0.011880
218.242000;0.010305
218.280000;0.011085
218.318000;0.010305
218.356000;0.010305
218.394000;0.011880
218.432000;0.011085
218.470000;0.010305
218.508000;0.011085
218.546000;0.011085
218.584000;0.011085
218.623000;0.010305
218.661000;0.011880
218.698000;0.011880
218.737000;0.011880
218.775000;0.011085
218.813000;0.011880
218.851000;0.011085
218.889000;0.011085
218.927000;0.011085
218.965000;0.011085
219.003000;0.011880
219.041000;0.011085
219.079000;0.010305
219.117000;0.010305
219.155000;0.011085
219.193000;0.012675
219.231000;0.010305
219.269000;0.009510
219.307000;0.011880
219.346000;0.012675
219.384000;0.011085
219.422000;0.011085
219.460000;0.011085
219.498000;0.011880
219.536000;0.011085
219.574000;0.011085
219.612000;0.010305
219.650000;0.011085
219.688000;0.011085
219.726000;0.010305
219.764000;0.011880
219.802000;0.011085
219.840000;0.009510
219.878000;0.011085
219.916000;0.010305
219.954000;0.011085
219.992000;0.011880
220.030000;0.009510
220.068000;0.011085
220.106000;0.011880
220.145000;0.011880
220.183000;0.011085
220.221000;0.011085
220.259000;0.011085
220.297000;0.011880
220.335000;0.011085
220.373000;0.011880
220.411000;0.011880
220.449000;0.011880
220.487000;0.011880
220.525000;0.011085
220.563000;0.011880
220.601000;0.011085
220.640000;0.010305
220.678000;0.010305
220.716000;0.009510
220.754000;0.011085
220.792000;0.011880
220.830000;0.011085
220.868000;0.012675
220.906000;0.012675
220.944000;0.011880
220.982000;0.012675
221.020000;0.012675
221.058000;0.012675
221.096000;0.011880
221.134000;0.011880
221.172000;0.011880
221.210000;0.011880
221.249000;0.012675
221.287000;0.011085
221.325000;0.011880
221.363000;0.011880
221.401000;0.011085
221.439000;0.011085
221.477000;0.011085
221.515000;0.010305
221.553000;0.011085
221.591000;0.011880
221.629000;0.012675
221.667000;0.011085
221.705000;0.011085
221.743000;0.011085
221.781000;0.011085
221.819000;0.010305
221.857000;0.010305
221.895000;0.009510
221.934000;0.011085
221.972000;0.011880
222.010000;0.011085
222.048000;0.011085
222.086000;0.012675
222.124000;0.011085
222.162000;0.010305
222.200000;0.010305
222.238000;0.010305
222.276000;0.010305
222.314000;0.010305
222.352000;0.010305
222.390000;0.008715
222.428000;0.011085
222.466000;0.011085
222.504000;0.009510
222.543000;0.010305
222.581000;0.011085
222.619000;0.010305
222.657000;0.011085
222.695000;0.010305
222.733000;0.011085
222.771000;0.009510
222.809000;0.010305
222.847000;0.009510
222.885000;0.010305
222.923000;0.011085
222.961000;0.011085
222.999000;0.010305
223.037000;0.011085
223.075000;0.011085
223.113000;0.010305
223.151000;0.012675
223.190000;0.011880
223.228000;0.013470
223.266000;0.012675
223.304000;0.011085
223.342000;0.011880
223.380000;0.011880
223.418000;0.011880
223.456000;0.011880
223.494000;0.012675
223.532000;0.011880
223.570000;0.010305
223.608000;0.011085
223.646000;0.011085
223.684000;0.011085
223.722000;0.011085
223.760000;0.011880
223.799000;0.011880
223.837000;0.012675
223.875000;0.012675
223.913000;0.011085
223.951000;0.011085
223.989000;0.011880
224.027000;0.010305
224.065000;0.010305
224.103000;0.011085
224.141000;0.009510
224.179000;0.011085
224.217000;0.011880
224.255000;0.011085
224.293000;0.010305
224.331000;0.011085
224.369000;0.011880
224.407000;0.011880
224.446000;0.011085
224.484000;0.010305
224.522000;0.010305
224.560000;0.011085
224.598000;0.011085
224.636000;0.011880
224.674000;0.011085
224.712000;0.011880
224.750000;0.011085
224.788000;0.011085
224.826000;0.011085
224.864000;0.011085
224.902000;0.010305
224.940000;0.010305
224.978000;0.011085
225.016000;0.011880
225.055000;0.011880
225.093000;0.011085
225.131000;0.011085
225.169000;0.011085
225.207000;0.011085
225.245000;0.010305
225.283000;0.011880
225.321000;0.011085
225.359000;0.011880
225.397000;0.011085
225.435000;0.011085
225.473000;0.011085
225.511000;0.011085
225.549000;0.012675
225.587000;0.011085
225.625000;0.011880
225.663000;0.011085
225.701000;0.010305
225.739000;0.010305
225.777000;0.011085
225.815000;0.011085
225.854000;0.012675
225.892000;0.012675
225.930000;0.011085
225.968000;0.011880
226.006000;0.011880
226.044000;0.011085
226.082000;0.011085
226.120000;0.011085
226.158000;0.011880
226.196000;0.011880
226.234000;0.011085
226.272000;0.012675
226.310000;0.011085
226.348000;0.011880
226.386000;0.011085
226.424000;0.011085
226.462000;0.011880
226.500000;0.011880
226.538000;0.011085
226.576000;0.011880
226.614000;0.011880
226.653000;0.011085
226.691000;0.011085
226.729000;0.011880
226.767000;0.010305
226.805000;0.011880
226.843000;0.011880
226.881000;0.010305
226.919000;0.011085
226.957000;0.011085
226.995000;0.011880
227.033000;0.011880
227.071000;0.011880
227.109000;0.011085
227.147000;0.011880
227.185000;0.010305
227.223000;0.010305
227.261000;0.011085
227.299000;0.010305
227.338000;0.011085
227.376000;0.011085
227.414000;0.011880
227.452000;0.011880
227.490000;0.012675
227.528000;0.012675
227.566000;0.011880
227.604000;0.011880
227.642000;0.011085
227.680000;0.011880
227.718000;0.011880
227.757000;0.011880
227.795000;0.011085
227.833000;0.010305
227.871000;0.011880
227.909000;0.011880
227.947000;0.011085
227.985000;0.011085
228.023000;0.010305
228.061000;0.012675
228.099000;0.012675
228.137000;0.013470
228.175000;0.011880
228.213000;0.011880
228.251000;0.011085
228.289000;0.011085
228.327000;0.011085
228.365000;0.011085
228.403000;0.011085
228.442000;0.010305
228.480000;0.011880
228.518000;0.011880
228.556000;0.011880
228.594000;0.011085
228.632000;0.010305
228.670000;0.010305
228.708000;0.011880
228.746000;0.011085
228.784000;0.011085
228.822000;0.011880
228.860000;0.011085
228.898000;0.010305
228.936000;0.010305
228.975000;0.011085
229.013000;0.010305
229.051000;0.011085
229.089000;0.011085
229.127000;0.010305
229.165000;0.011880
229.203000;0.011880
229.241000;0.011880
229.279000;0.012675
229.317000;0.011085
229.355000;0.011880
229.393000;0.011880
229.431000;0.012675
229.469000;0.012675
229.508000;0.011085
229.546000;0.011880
229.584000;0.011880
229.622000;0.011880
229.660000;0.011880
229.698000;0.011880
229.736000;0.012675
229.774000;0.011880
229.812000;0.010305
229.850000;0.010305
229.888000;0.012675
229.926000;0.011085
229.964000;0.010305
230.002000;0.010305
230.040000;0.011880
230.078000;0.011880
230.116000;0.011085
230.155000;0.011085
230.193000;0.011880
230.231000;0.012675
230.269000;0.011085
230.307000;0.011085
230.345000;0.011085
230.383000;0.011085
230.421000;0.011085
230.459000;0.011880
230.497000;0.011085
230.535000;0.011880
230.573000;0.011880
230.611000;0.011880
230.649000;0.011880
230.687000;0.011085
230.725000;0.010305
230.763000;0.011880
230.801000;0.012675
230.840000;0.012675
230.878000;0.011085
230.916000;0.011085
230.954000;0.010305
230.992000;0.012675
231.030000;0.011085
231.068000;0.012675
231.106000;0.012675
231.144000;0.011880
231.182000;0.011880
231.220000;0.011880
231.258000;0.012675
231.296000;0.012675
231.334000;0.011085
231.372000;0.011880
231.410000;0.011880
231.448000;0.011880
231.487000;0.011880
231.525000;0.011085
231.563000;0.011880
231.601000;0.011880
231.639000;0.011085
231.677000;0.011880
231.715000;0.011880
231.753000;0.011085
231.791000;0.011085
231.829000;0.011085
231.867000;0.011085
231.905000;0.011085
231.943000;0.011880
231.981000;0.012675
232.019000;0.011085
232.057000;0.012675
232.095000;0.011085
232.134000;0.011085
232.172000;0.010305
232.210000;0.012675
232.248000;0.011880
232.286000;0.011880
232.324000;0.012675
232.362000;0.012675
232.400000;0.011085
232.439000;0.011880
232.477000;0.011085
232.515000;0.012675
232.553000;0.012675
232.591000;0.011880
232.629000;0.011085
232.667000;0.012675
232.705000;0.011085
232.743000;0.012675
232.781000;0.011085
232.819000;0.011085
232.857000;0.011085
232.895000;0.011085
232.933000;0.009510
232.971000;0.011880
233.009000;0.011880
233.047000;0.011880
233.085000;0.011880
233.123000;0.011085
233.161000;0.011880
233.199000;0.011085
233.238000;0.010305
233.276000;0.011085
233.314000;0.012675
233.352000;0.011880
233.390000;0.010305
233.428000;0.010305
233.466000;0.011880
233.504000;0.010305
233.542000;0.010305
233.580000;0.011880
233.618000;0.011880
233.656000;0.010305
233.694000;0.011085
233.732000;0.010305
233.770000;0.011085
233.808000;0.011085
233.846000;0.011085
233.884000;0.010305
233.922000;0.011085
233.960000;0.011085
233.998000;0.010305
234.037000;0.011880
234.075000;0.010305
234.113000;0.012675
234.151000;0.012675
234.189000;0.011880
234.227000;0.011085
234.265000;0.011880
234.303000;0.012675
234.341000;0.011880
234.379000;0.011085
234.417000;0.011880
234.455000;0.011880
234.493000;0.011880
234.531000;0.009510
234.569000;0.011880
234.607000;0.011085
234.645000;0.010305
234.684000;0.011880
234.722000;0.011085
234.760000;0.011085
234.798000;0.012675
234.836000;0.011880
234.876000;0.012675
234.914000;0.012675
234.952000;0.011880
234.990000;0.013470
235.028000;0.012675
235.066000;0.011085
235.104000;0.012675
235.142000;0.012675
235.180000;0.011880
235.218000;0.014264
235.256000;0.012675
235.294000;0.012675
235.333000;0.012675
235.371000;0.011880
235.409000;0.012675
235.447000;0.011085
235.485000;0.011880
235.524000;0.011880
235.562000;0.013470
235.600000;0.013470
235.638000;0.011085
235.676000;0.011085
235.714000;0.012675
235.752000;0.011085
235.790000;0.011085
235.828000;0.011085
235.866000;0.011085
235.904000;0.011880
235.942000;0.011085
235.980000;0.011880
236.018000;0.011085
236.056000;0.011880
236.094000;0.011085
236.133000;0.011085
236.171000;0.010305
236.209000;0.010305
236.247000;0.011880
236.285000;0.012675
236.323000;0.011085
236.361000;0.012675
236.399000;0.011880
236.437000;0.011880
236.475000;0.011085
236.513000;0.012675
236.551000;0.011085
236.589000;0.012675
236.627000;0.011085
236.665000;0.011085
236.703000;0.012675
236.741000;0.011085
236.780000;0.012675
236.818000;0.012675
236.856000;0.011880
236.894000;0.012675
236.932000;0.012675
236.970000;0.012675
237.008000;0.011880
237.046000;0.012675
237.084000;0.012675
237.122000;0.011880
237.160000;0.012675
237.198000;0.011880
237.236000;0.011085
237.274000;0.011880
237.312000;0.012675
237.350000;0.011880
237.389000;0.011085
237.427000;0.011880
237.465000;0.011085
237.503000;0.012675
237.541000;0.012675
237.579000;0.012675
237.617000;0.011880
237.655000;0.011880
237.693000;0.009510
237.732000;0.010305
237.770000;0.010305
237.808000;0.011085
237.846000;0.011085
237.884000;0.012675
237.922000;0.011085
237.960000;0.011880
237.998000;0.011085
238.036000;0.011085
238.074000;0.011880
238.112000;0.011085
238.150000;0.012675
238.188000;0.010305
238.226000;0.011085
238.264000;0.011085
238.302000;0.011085
238.340000;0.012675
238.378000;0.012675
238.416000;0.012675
238.454000;0.011085
238.492000;0.011085
238.531000;0.011085
238.569000;0.011880
238.607000;0.011880
238.645000;0.011880
238.683000;0.011880
238.721000;0.011085
238.759000;0.011085
238.797000;0.010305
238.835000;0.011085
238.873000;0.010305
238.911000;0.010305
238.949000;0.009510
238.987000;0.011085
239.025000;0.010305
239.063000;0.011085
239.102000;0.011085
239.140000;0.011085
239.178000;0.010305
239.216000;0.010305
239.254000;0.011085
239.292000;0.011880
239.330000;0.009510
239.368000;0.010305
239.406000;0.011085
239.444000;0.011085
239.482000;0.011085
239.520000;0.011085
239.559000;0.011085
239.597000;0.010305
239.635000;0.010305
239.673000;0.011880
239.711000;0.011085
239.749000;0.011880
239.787000;0.010305
239.825000;0.011085
239.863000;0.011880
239.901000;0.012675
239.939000;0.011085
239.977000;0.011880
240.015000;0.011880
240.053000;0.011880
240.091000;0.010305
240.129000;0.011085
240.167000;0.010305
240.205000;0.010305
240.243000;0.008715
240.281000;0.008715
240.319000;0.008715
240.357000;0.009510
240.395000;0.009510
240.434000;0.010305
240.472000;0.011085
240.510000;0.010305
240.548000;0.010305
240.586000;0.009510
240.624000;0.011085
240.662000;0.011880
240.700000;0.011085
240.738000;0.011880
240.776000;0.012675
240.814000;0.011880
240.852000;0.011880
240.890000;0.011880
240.928000;0.012675
240.966000;0.011085
241.004000;0.012675
241.042000;0.011880
241.080000;0.011880
241.118000;0.010305
241.157000;0.009510
241.195000;0.011085
241.233000;0.011085
241.271000;0.012675
241.309000;0.011085
241.347000;0.011880
241.385000;0.011085
241.423000;0.011880
241.461000;0.011880
241.499000;0.011880
241.538000;0.011880
241.576000;0.011880
241.614000;0.011085
241.652000;0.011085
241.690000;0.012675
241.728000;0.011085
241.766000;0.011085
241.804000;0.011085
241.842000;0.011880
241.880000;0.011085
241.918000;0.011880
241.956000;0.011880
241.994000;0.011880
242.032000;0.010305
242.070000;0.011085
242.108000;0.013470
242.147000;0.011085
242.185000;0.011880
242.223000;0.011880
242.261000;0.011085
242.299000;0.011085
242.337000;0.011085
242.375000;0.011880
242.413000;0.012675
242.451000;0.010305
242.489000;0.011085
242.527000;0.010305
242.565000;0.011085
242.603000;0.011085
242.641000;0.011880
242.680000;0.011880
242.718000;0.011880
242.756000;0.011880
242.794000;0.011880
242.832000;0.012675
242.870000;0.011880
242.908000;0.012675
242.946000;0.011880
242.984000;0.011880
243.022000;0.011880
243.060000;0.012675
243.098000;0.012675
243.136000;0.012675
243.174000;0.011085
243.212000;0.011085
243.250000;0.011085
243.288000;0.011085
243.326000;0.011880
243.364000;0.011880
243.403000;0.010305
243.441000;0.010305
243.479000;0.011085
243.517000;0.011880
243.555000;0.011880
243.593000;0.011085
243.631000;0.011085
243.669000;0.011880
243.707000;0.011880
243.745000;0.011880
243.783000;0.011085
243.821000;0.011880
243.859000;0.011880
243.897000;0.011880
243.936000;0.011880
243.974000;0.012675
244.012000;0.011880
244.050000;0.011880
244.088000;0.011880
244.126000;0.012675
244.164000;0.012675
244.202000;0.011085
244.240000;0.011085
244.278000;0.011880
244.316000;0.011085
244.354000;0.010305
244.392000;0.010305
244.430000;0.011085
244.468000;0.009510
244.506000;0.011085
244.544000;0.011085
244.582000;0.011085
244.620000;0.011880
244.658000;0.011085
244.696000;0.011880
244.735000;0.011880
244.773000;0.011085
244.811000;0.011880
244.849000;0.011085
244.887000;0.011880
244.925000;0.011880
244.963000;0.010305
245.001000;0.011085
245.039000;0.011085
245.077000;0.011880
245.115000;0.011880
245.153000;0.011085
245.191000;0.011085
245.230000;0.011085
245.268000;0.011880
245.306000;0.010305
245.344000;0.010305
245.382000;0.011085
245.420000;0.010305
245.458000;0.011880
245.496000;0.010305
245.534000;0.009510
245.572000;0.008715
245.610000;0.009510
245.648000;0.008715
245.686000;0.009510
245.724000;0.009510
245.762000;0.009510
245.800000;0.011085
245.838000;0.010305
245.876000;0.011085
245.915000;0.011085
245.953000;0.011085
245.991000;0.011085
246.029000;0.010305
246.067000;0.010305
246.105000;0.009510
246.143000;0.010305
246.181000;0.009510
246.219000;0.009510
246.257000;0.011085
246.295000;0.009510
246.333000;0.009510
246.371000;0.010305
246.409000;0.009510
246.447000;0.009510
246.485000;0.009510
246.523000;0.009510
246.561000;0.009510
246.600000;0.011085
246.638000;0.010305
246.676000;0.010305
246.714000;0.009510
246.752000;0.010305
246.790000;0.011085
246.828000;0.011085
246.866000;0.010305
246.904000;0.009510
246.942000;0.009510
246.980000;0.011085
247.018000;0.010305
247.056000;0.008715
247.094000;0.009510
247.132000;0.009510
247.170000;0.010305
247.208000;0.010305
247.246000;0.010305
247.284000;0.010305
247.322000;0.010305
247.360000;0.011085
247.399000;0.010305
247.437000;0.011085
247.475000;0.010305
247.513000;0.011085
247.551000;0.011085
247.589000;0.010305
247.627000;0.010305
247.665000;0.011085
247.703000;0.010305
247.741000;0.011085
247.779000;0.011085
247.817000;0.011880
247.855000;0.011085
247.893000;0.011085
247.932000;0.011880
247.970000;0.011880
248.008000;0.011880
248.046000;0.012675
248.084000;0.012675
248.122000;0.011880
248.160000;0.011085
248.198000;0.012675
248.236000;0.012675
248.274000;0.011880
248.312000;0.011880
248.352000;0.011880
248.390000;0.011880
248.428000;0.010305
248.466000;0.012675
248.504000;0.011880
248.542000;0.011880
248.580000;0.011085
248.618000;0.011085
248.656000;0.011085
248.694000;0.011880
248.733000;0.011880
248.771000;0.011085
248.809000;0.011085
248.847000;0.010305
248.885000;0.012675
248.923000;0.010305
248.961000;0.011085
248.999000;0.011085
249.037000;0.012675
249.075000;0.011085
249.113000;0.011085
249.151000;0.011085
249.189000;0.011085
249.227000;0.011880
249.265000;0.012675
249.303000;0.011085
249.341000;0.011880
249.379000;0.011085
249.417000;0.011085
249.455000;0.011085
249.493000;0.011085
249.532000;0.011085
249.570000;0.009510
249.608000;0.010305
249.646000;0.009510
249.684000;0.010305
249.722000;0.011085
249.760000;0.011880
249.798000;0.011085
249.836000;0.009510
249.874000;0.009510
249.912000;0.010305
249.950000;0.010305
249.988000;0.010305
250.027000;0.011085
250.065000;0.011880
250.103000;0.010305
250.141000;0.009510
250.179000;0.011085
250.217000;0.010305
250.255000;0.010305
250.293000;0.011085
250.331000;0.011085
250.369000;0.011085
250.407000;0.010305
250.445000;0.011085
250.483000;0.011085
250.522000;0.010305
250.560000;0.010305
250.598000;0.011085
250.636000;0.010305
250.674000;0.010305
250.712000;0.011085
250.750000;0.011085
250.788000;0.010305
250.826000;0.011085
250.864000;0.010305
250.902000;0.011085
250.940000;0.010305
250.978000;0.009510
251.016000;0.011085
251.054000;0.010305
251.092000;0.010305
251.131000;0.011085
251.169000;0.010305
251.207000;0.011085
251.245000;0.011880
251.283000;0.011880
251.321000;0.011085
251.359000;0.011085
251.397000;0.011085
251.435000;0.011085
251.473000;0.010305
251.511000;0.010305
251.549000;0.011880
251.587000;0.011880
251.625000;0.011085
251.663000;0.011085
251.701000;0.011880
251.739000;0.011085
251.777000;0.010305
251.815000;0.011880
251.854000;0.011085
251.892000;0.011085
251.930000;0.010305
251.968000;0.011085
252.006000;0.011085
252.044000;0.011085
252.082000;0.011085
252.120000;0.011085
252.158000;0.011085
252.196000;0.010305
252.234000;0.011085
252.272000;0.010305
252.310000;0.011085
252.348000;0.011880
252.386000;0.010305
252.425000;0.011085
252.463000;0.011085
252.501000;0.010305
252.539000;0.009510
252.577000;0.011085
252.615000;0.011085
252.653000;0.012675
252.691000;0.010305
252.729000;0.010305
252.767000;0.011085
252.805000;0.011085
252.843000;0.011880
252.881000;0.010305
252.919000;0.010305
252.957000;0.012675
252.995000;0.011085
253.033000;0.011085
253.071000;0.011085
253.109000;0.010305
253.148000;0.011085
253.186000;0.011085
253.224000;0.011085
253.262000;0.011085
253.300000;0.011880
253.338000;0.011085
253.376000;0.011880
253.414000;0.011085
253.452000;0.011880
253.490000;0.011880
253.529000;0.011085
253.567000;0.011880
253.605000;0.011085
253.643000;0.011085
253.681000;0.011085
253.719000;0.011880
253.757000;0.011085
253.795000;0.012675
253.833000;0.011880
253.871000;0.011880
253.909000;0.011880
253.947000;0.011085
253.985000;0.010305
254.023000;0.011085
254.061000;0.011085
254.099000;0.011085
254.137000;0.011880
254.175000;0.011085
254.213000;0.011085
254.251000;0.011880
254.289000;0.011085
254.328000;0.011880
254.366000;0.011085
254.404000;0.011880
254.442000;0.011880
254.480000;0.012675
254.518000;0.011880
254.556000;0.011880
254.594000;0.011880
254.632000;0.011085
254.670000;0.011880
254.708000;0.011085
254.746000;0.011085
254.784000;0.011880
254.823000;0.011085
254.861000;0.011880
254.899000;0.011085
254.937000;0.011880
254.975000;0.011085
255.013000;0.011085
255.051000;0.011880
255.089000;0.010305
255.127000;0.012675
255.165000;0.011880
255.203000;0.012675
255.241000;0.010305
255.280000;0.012675
255.318000;0.010305
255.356000;0.011085
255.394000;0.011880
255.432000;0.011880
255.470000;0.011880
255.508000;0.011085
255.546000;0.010305
255.584000;0.011085
255.622000;0.011880
255.660000;0.011880
255.698000;0.011880
255.736000;0.010305
255.774000;0.011085
255.812000;0.011085
255.850000;0.012675
255.888000;0.010305
255.926000;0.010305
255.964000;0.011085
256.002000;0.010305
256.040000;0.011880
256.078000;0.011085
256.116000;0.011085
256.155000;0.011085
256.193000;0.010305
256.231000;0.011085
256.269000;0.011085
256.307000;0.010305
256.345000;0.011085
256.383000;0.011085
256.421000;0.009510
256.459000;0.011880
256.497000;0.011085
256.535000;0.010305
256.573000;0.011880
256.611000;0.011085
256.649000;0.011085
256.687000;0.010305
256.726000;0.010305
256.764000;0.011085
256.802000;0.011880
256.840000;0.010305
256.878000;0.012675
256.916000;0.011085
256.954000;0.010305
256.992000;0.011085
257.030000;0.012675
257.068000;0.011085
257.106000;0.011085
257.145000;0.011085
257.183000;0.011085
257.221000;0.011085
257.259000;0.010305
257.297000;0.010305
257.335000;0.011085
257.373000;0.011085
257.411000;0.011085
257.449000;0.011085
257.487000;0.010305
257.526000;0.011085
257.564000;0.011085
257.602000;0.011880
257.640000;0.010305
257.678000;0.011085
257.716000;0.010305
257.754000;0.011085
257.792000;0.010305
257.831000;0.011085
257.869000;0.011085
257.907000;0.011880
257.945000;0.011880
257.983000;0.010305
258.021000;0.009510
258.059000;0.010305
258.097000;0.010305
258.135000;0.010305
258.173000;0.010305
258.211000;0.009510
258.249000;0.010305
258.287000;0.010305
258.325000;0.010305
258.363000;0.011085
258.401000;0.010305
258.439000;0.011085
258.477000;0.010305
258.515000;0.010305
258.553000;0.009510
258.591000;0.009510
258.629000;0.009510
258.667000;0.011085
258.706000;0.010305
258.744000;0.011085
258.782000;0.010305
258.820000;0.010305
258.858000;0.010305
258.896000;0.011085
258.934000;0.011085
258.972000;0.011085
259.010000;0.010305
259.048000;0.011085
259.086000;0.011880
259.124000;0.011880
259.162000;0.011085
259.200000;0.011085
259.238000;0.010305
259.276000;0.010305
259.314000;0.010305
259.353000;0.011880
259.391000;0.011880
259.429000;0.009510
259.467000;0.011880
259.505000;0.011085
259.543000;0.011880
259.581000;0.011085
259.619000;0.012675
259.657000;0.010305
259.695000;0.011085
259.734000;0.011085
259.772000;0.010305
259.810000;0.011085
259.848000;0.011085
259.886000;0.011085
259.924000;0.010305
259.962000;0.010305
260.000000;0.009510
260.038000;0.011085
260.076000;0.010305
260.114000;0.010305
260.152000;0.008715
260.190000;0.009510
260.228000;0.010305
260.266000;0.010305
260.304000;0.010305
260.342000;0.009510
260.380000;0.011085
260.418000;0.011085
260.456000;0.009510
260.494000;0.011085
260.533000;0.009510
260.571000;0.009510
260.609000;0.009510
260.647000;0.010305
260.685000;0.010305
260.723000;0.009510
260.761000;0.009510
260.799000;0.010305
260.837000;0.011085
260.875000;0.011085
260.913000;0.009510
260.951000;0.011085
260.989000;0.011085
261.028000;0.010305
261.066000;0.009510
261.104000;0.011085
261.142000;0.009510
261.180000;0.009510
261.218000;0.011085
261.256000;0.009510
261.294000;0.010305
261.332000;0.011085
261.370000;0.009510
261.408000;0.010305
261.446000;0.011085
261.485000;0.011085
261.523000;0.011880
261.561000;0.009510
261.599000;0.009510
261.637000;0.009510
261.675000;0.011085
261.713000;0.011880
261.751000;0.010305
261.789000;0.010305
261.827000;0.011085
261.865000;0.010305
261.903000;0.010305
261.941000;0.010305
261.979000;0.010305
262.017000;0.011085
262.055000;0.011880
262.093000;0.010305
262.132000;0.010305
262.170000;0.009510
262.208000;0.011085
262.246000;0.009510
262.284000;0.009510
262.322000;0.010305
262.360000;0.009510
262.398000;0.009510
262.436000;0.009510
262.476000;0.011085
262.514000;0.011085
262.552000;0.011880
262.590000;0.008715
262.628000;0.011880
262.666000;0.010305
262.704000;0.011085
262.742000;0.011085
262.780000;0.010305
262.818000;0.011880
262.856000;0.011085
262.894000;0.011085
262.932000;0.010305
262.970000;0.009510
263.008000;0.009510
263.046000;0.011085
263.087000;0.011085
263.125000;0.011085
263.163000;0.010305
263.201000;0.010305
263.239000;0.011085
263.277000;0.011085
263.315000;0.011085
263.353000;0.011880
263.391000;0.011085
263.429000;0.011085
263.467000;0.010305
263.505000;0.009510
263.544000;0.010305
263.582000;0.011085
263.620000;0.010305
263.658000;0.011880
263.698000;0.011085
263.736000;0.009510
263.774000;0.010305
263.812000;0.011085
263.850000;0.011085
263.888000;0.011085
263.926000;0.011085
263.964000;0.011085
264.002000;0.010305
264.040000;0.010305
264.078000;0.010305
264.116000;0.010305
264.155000;0.011085
264.193000;0.010305
264.231000;0.009510
264.269000;0.010305
264.307000;0.009510
264.345000;0.009510
264.383000;0.009510
264.421000;0.009510
264.459000;0.010305
264.497000;0.011085
264.535000;0.010305
264.573000;0.009510
264.611000;0.011085
264.649000;0.011085
264.687000;0.010305
264.725000;0.011085
264.763000;0.010305
264.801000;0.011880
264.840000;0.011880
264.878000;0.011085
264.916000;0.011085
264.954000;0.011085
264.992000;0.011085
265.030000;0.012675
265.068000;0.011880
265.106000;0.011085
265.144000;0.011085
265.182000;0.011085
265.220000;0.011880
265.258000;0.011880
265.296000;0.011880
265.335000;0.011085
265.373000;0.011085
265.411000;0.011085
265.449000;0.011880
265.487000;0.011085
265.525000;0.011880
265.563000;0.011880
265.601000;0.011085
265.639000;0.010305
265.677000;0.011085
265.715000;0.011880
265.753000;0.011880
265.791000;0.011085
265.829000;0.011085
265.867000;0.011085
265.905000;0.011085
265.944000;0.009510
265.982000;0.010305
266.020000;0.009510
266.058000;0.011085
266.096000;0.010305
266.134000;0.009510
266.172000;0.011085
266.210000;0.011085
266.248000;0.011085
266.286000;0.011880
266.324000;0.011880
266.362000;0.011880
266.400000;0.011085
266.439000;0.011085
266.477000;0.012675
266.515000;0.011880
266.553000;0.010305
266.591000;0.011085
266.629000;0.011085
266.667000;0.011085
266.705000;0.011880
266.743000;0.011085
266.781000;0.010305
266.819000;0.012675
266.857000;0.011085
266.895000;0.011085
266.933000;0.011880
266.971000;0.010305
267.009000;0.011085
267.047000;0.011085
267.085000;0.011880
267.123000;0.011085
267.161000;0.011085
267.199000;0.011085
267.238000;0.011880
267.276000;0.011880
267.314000;0.011880
267.352000;0.011880
267.390000;0.011085
267.428000;0.012675
267.466000;0.011880
267.504000;0.012675
267.542000;0.011085
267.580000;0.012675
267.618000;0.011880
267.656000;0.011880
267.694000;0.012675
267.732000;0.011880
267.770000;0.011085
267.808000;0.011880
267.846000;0.012675
267.884000;0.011880
267.922000;0.011880
267.960000;0.011085
267.998000;0.011880
268.037000;0.011085
268.075000;0.011085
268.113000;0.011085
268.151000;0.009510
268.189000;0.010305
268.227000;0.011880
268.265000;0.011880
268.303000;0.012675
268.341000;0.011085
268.379000;0.011880
268.417000;0.010305
268.455000;0.011085
268.493000;0.010305
268.532000;0.009510
268.570000;0.011880
268.608000;0.011085
268.646000;0.011085
268.684000;0.011085
268.722000;0.011085
268.760000;0.011085
268.798000;0.010305
268.836000;0.011085
268.874000;0.011880
268.912000;0.011085
268.950000;0.012675
268.988000;0.011880
269.026000;0.011085
269.065000;0.012675
269.103000;0.011880
269.141000;0.011880
269.179000;0.011880
269.217000;0.012675
269.254000;0.011880
269.292000;0.011085
269.331000;0.011880
269.369000;0.010305
269.407000;0.010305
269.445000;0.011085
269.483000;0.011085
269.521000;0.011085
269.559000;0.013470
269.597000;0.011880
269.635000;0.010305
269.673000;0.012675
269.711000;0.011085
269.749000;0.011085
269.787000;0.011880
269.825000;0.011880
269.863000;0.011085
269.901000;0.011085
269.939000;0.011880
269.977000;0.010305
270.015000;0.011085
270.053000;0.011085
270.091000;0.009510
270.130000;0.011085
270.168000;0.010305
270.206000;0.011085
270.244000;0.011880
270.282000;0.011085
270.320000;0.011085
270.358000;0.011880
270.396000;0.011085
270.434000;0.011880
270.472000;0.011085
270.510000;0.010305
270.548000;0.010305
270.587000;0.011085
270.625000;0.010305
270.663000;0.010305
270.701000;0.011085
270.739000;0.011880
270.777000;0.012675
270.815000;0.011085
270.853000;0.011085
270.891000;0.011085
270.929000;0.011085
270.967000;0.011880
271.005000;0.011085
271.043000;0.010305
271.081000;0.011085
271.119000;0.010305
271.157000;0.011880
271.195000;0.011085
271.234000;0.010305
271.272000;0.011085
271.310000;0.011880
271.348000;0.011085
271.386000;0.011880
271.424000;0.011880
271.462000;0.011085
271.500000;0.012675
271.538000;0.011880
271.576000;0.010305
271.614000;0.011085
271.652000;0.011085
271.690000;0.011085
271.728000;0.011880
271.766000;0.011880
271.804000;0.012675
271.842000;0.011880
271.880000;0.009510
271.919000;0.012675
271.957000;0.011085
271.995000;0.011085
272.033000;0.011085
272.071000;0.012675
272.109000;0.009510
272.147000;0.011085
272.185000;0.011085
272.223000;0.011085
272.261000;0.011085
272.299000;0.011085
272.337000;0.010305
272.375000;0.011085
272.413000;0.011085
272.452000;0.011880
272.490000;0.010305
272.528000;0.011085
272.566000;0.011085
272.604000;0.010305
272.642000;0.010305
272.680000;0.011085
272.718000;0.011880
272.756000;0.011085
272.794000;0.011880
272.832000;0.011085
272.870000;0.011085
272.909000;0.011085
272.947000;0.009510
272.985000;0.011085
273.023000;0.011085
273.061000;0.011880
273.099000;0.011085
273.137000;0.011880
273.175000;0.011880
273.213000;0.011880
273.251000;0.010305
273.289000;0.011085
273.327000;0.011085
273.365000;0.011085
273.403000;0.011085
273.441000;0.011085
273.479000;0.011085
273.517000;0.011880
273.555000;0.010305
273.593000;0.010305
273.632000;0.011880
273.670000;0.011085
273.708000;0.010305
273.746000;0.010305
273.784000;0.011085
273.822000;0.011880
273.860000;0.012675
273.898000;0.012675
273.936000;0.011880
273.974000;0.011085
274.012000;0.010305
274.050000;0.011085
274.088000;0.012675
274.126000;0.011085
274.165000;0.010305
274.203000;0.011085
274.241000;0.010305
274.279000;0.011880
274.317000;0.011085
274.355000;0.011085
274.393000;0.012675
274.431000;0.011880
274.469000;0.012675
274.507000;0.011880
274.545000;0.011085
274.583000;0.011880
274.621000;0.011085
274.660000;0.012675
274.698000;0.012675
274.736000;0.012675
274.774000;0.010305
274.812000;0.011085
274.850000;0.011085
274.888000;0.011085
274.926000;0.011085
274.964000;0.011880
275.002000;0.011085
275.040000;0.011880
275.078000;0.011085
275.116000;0.012675
275.154000;0.012675
275.192000;0.011085
275.230000;0.012675
275.268000;0.011880
275.306000;0.010305
275.344000;0.011085
275.382000;0.010305
275.420000;0.009510
275.459000;0.011880
275.497000;0.011880
275.535000;0.011880
275.573000;0.010305
275.611000;0.011085
275.649000;0.011880
275.687000;0.010305
275.725000;0.010305
275.763000;0.011085
275.801000;0.011880
275.839000;0.010305
275.877000;0.011085
275.915000;0.011085
275.953000;0.009510
275.991000;0.011085
276.030000;0.011880
276.068000;0.011085
276.106000;0.011880
276.144000;0.011880
276.182000;0.011880
276.220000;0.011085
276.258000;0.010305
276.296000;0.010305
276.334000;0.011085
276.372000;0.008715
276.410000;0.009510
276.448000;0.011085
276.486000;0.011085
276.524000;0.011085
276.562000;0.011880
276.600000;0.010305
276.638000;0.011085
276.676000;0.012675
276.714000;0.011085
276.752000;0.010305
276.790000;0.011085
276.829000;0.010305
276.867000;0.009510
276.905000;0.010305
276.943000;0.010305
276.981000;0.011880
277.019000;0.011085
277.057000;0.011085
277.095000;0.011085
277.133000;0.011880
277.171000;0.011880
277.209000;0.011085
277.247000;0.011085
277.285000;0.012675
277.324000;0.011085
277.362000;0.011085
277.400000;0.012675
277.438000;0.012675
277.476000;0.011880
277.514000;0.011880
277.552000;0.011880
277.590000;0.011880
277.628000;0.012675
277.666000;0.012675
277.704000;0.012675
277.742000;0.012675
277.781000;0.011880
277.819000;0.011880
277.857000;0.012675
277.895000;0.012675
277.933000;0.012675
277.971000;0.012675
278.009000;0.011880
278.047000;0.011880
278.085000;0.011880
278.123000;0.011085
278.161000;0.011880
278.199000;0.011085
278.237000;0.011085
278.275000;0.011085
278.313000;0.011880
278.351000;0.011085
278.389000;0.011085
278.428000;0.011880
278.466000;0.011085
278.504000;0.012675
278.542000;0.013470
278.580000;0.012675
278.618000;0.011880
278.656000;0.011085
278.694000;0.010305
278.732000;0.011880
278.770000;0.011085
278.808000;0.013470
278.846000;0.011880
278.884000;0.012675
278.922000;0.011880
278.960000;0.012675
278.998000;0.011880
279.036000;0.011880
279.075000;0.012675
279.113000;0.011880
279.151000;0.011880
279.189000;0.013470
279.227000;0.012675
279.265000;0.012675
279.303000;0.011880
279.341000;0.011880
279.379000;0.012675
279.417000;0.012675
279.455000;0.013470
279.493000;0.012675
279.532000;0.011880
279.570000;0.013470
279.607000;0.012675
279.645000;0.011880
279.683000;0.012675
279.722000;0.011880
279.760000;0.012675
279.798000;0.012675
279.836000;0.012675
279.874000;0.012675
279.912000;0.011085
279.950000;0.011880
279.988000;0.012675
280.026000;0.011085
280.064000;0.011880
280.103000;0.011880
280.141000;0.011880
280.179000;0.011085
280.217000;0.011085
280.255000;0.012675
280.293000;0.011085
280.331000;0.011085
280.369000;0.011880
280.407000;0.011085
280.445000;0.011880
280.483000;0.011880
280.521000;0.011880
280.559000;0.011880
280.597000;0.011085
280.635000;0.011085
280.673000;0.011085
280.711000;0.012675
280.749000;0.011085
280.788000;0.010305
280.826000;0.011085
280.864000;0.011880
280.902000;0.011880
280.940000;0.011880
280.978000;0.011085
281.016000;0.011085
281.054000;0.011880
281.092000;0.011880
281.130000;0.011085
281.168000;0.012675
281.206000;0.011085
281.244000;0.011085
281.282000;0.011085
281.320000;0.011085
281.358000;0.011085
281.396000;0.011880
281.434000;0.011085
281.472000;0.010305
281.510000;0.010305
281.549000;0.011880
281.587000;0.011880
281.625000;0.011085
281.663000;0.011085
281.701000;0.011880
281.739000;0.011085
281.777000;0.011880
281.815000;0.012675
281.853000;0.011880
281.891000;0.011085
281.929000;0.011085
281.967000;0.011880
282.005000;0.010305
282.043000;0.011085
282.081000;0.011085
282.120000;0.011085
282.158000;0.011880
282.196000;0.011085
282.234000;0.010305
282.272000;0.012675
282.310000;0.011085
282.348000;0.011085
282.386000;0.011880
282.425000;0.012675
282.463000;0.011085
282.501000;0.011085
282.539000;0.011880
282.577000;0.011880
282.615000;0.010305
282.653000;0.011880
282.691000;0.011880
282.729000;0.011880
282.767000;0.012675
282.805000;0.011085
282.843000;0.011880
282.881000;0.011880
282.919000;0.011880
282.957000;0.011085
282.995000;0.012675
283.034000;0.011085
283.072000;0.012675
283.110000;0.012675
283.148000;0.011085
283.186000;0.011085
283.224000;0.011880
283.262000;0.010305
283.300000;0.011085
283.338000;0.010305
283.376000;0.010305
283.414000;0.012675
283.452000;0.012675
283.491000;0.011085
283.529000;0.012675
283.567000;0.012675
283.605000;0.011880
283.643000;0.011085
283.681000;0.011085
283.719000;0.011085
283.757000;0.010305
283.795000;0.011085
283.833000;0.011880
283.871000;0.011085
283.909000;0.011085
283.947000;0.011085
283.985000;0.011085
284.023000;0.011085
284.061000;0.011880
284.099000;0.010305
284.138000;0.011085
284.176000;0.011085
284.214000;0.011085
284.252000;0.011880
284.290000;0.010305
284.328000;0.010305
284.366000;0.010305
284.404000;0.011880
284.442000;0.011880
284.480000;0.011085
284.518000;0.011085
284.558000;0.011085
284.596000;0.012675
284.634000;0.011880
284.672000;0.011880
284.710000;0.011085
284.748000;0.012675
284.786000;0.012675
284.825000;0.012675
284.863000;0.013470
284.901000;0.011880
284.939000;0.013470
284.977000;0.011880
285.015000;0.012675
285.053000;0.011085
285.091000;0.012675
285.129000;0.011880
285.167000;0.011880
285.205000;0.011085
285.243000;0.012675
285.281000;0.012675
285.320000;0.013470
285.358000;0.012675
285.396000;0.012675
285.434000;0.012675
285.472000;0.012675
285.510000;0.012675
285.548000;0.011085
285.586000;0.012675
285.625000;0.011880
285.663000;0.011085
285.701000;0.011085
285.739000;0.011085
285.777000;0.011880
285.815000;0.010305
285.853000;0.010305
285.891000;0.010305
285.929000;0.011085
285.967000;0.010305
286.005000;0.009510
286.043000;0.010305
286.081000;0.010305
286.119000;0.011085
286.157000;0.011085
286.195000;0.012675
286.233000;0.010305
286.271000;0.011085
286.309000;0.011880
286.347000;0.011085
286.385000;0.011880
286.424000;0.011085
286.462000;0.011085
286.500000;0.011085
286.538000;0.011085
286.576000;0.011880
286.614000;0.010305
286.652000;0.010305
286.690000;0.011085
286.728000;0.010305
286.766000;0.011085
286.804000;0.010305
286.842000;0.012675
286.880000;0.011085
286.919000;0.010305
286.957000;0.010305
286.995000;0.009510
287.033000;0.010305
287.071000;0.011085
287.109000;0.010305
287.147000;0.010305
287.185000;0.011085
287.223000;0.009510
287.261000;0.008715
287.299000;0.009510
287.337000;0.009510
287.375000;0.009510
287.413000;0.011085
287.451000;0.011880
287.489000;0.011880
287.527000;0.011880
287.565000;0.012675
