t / s;I / A
0.009000;0.001695
0.047000;0.000900
0.085000;0.001695
0.123000;0.000900
0.161000;0.000900
0.199000;0.000120
0.238000;0.001470
0.276000;0.001470
0.314000;0.001470
0.352000;0.002265
0.390000;0.001470
0.428000;0.002265
0.466000;0.001470
0.504000;0.001470
0.542000;0.001470
0.580000;0.001470
0.618000;0.000675
0.656000;0.002265
0.694000;0.002265
0.733000;0.002265
0.771000;0.002265
0.809000;0.001470
0.847000;0.003060
0.885000;0.003060
0.923000;0.002265
0.961000;0.003060
0.999000;0.003840
1.038000;0.002265
1.076000;0.001470
1.114000;0.003060
1.152000;0.002265
1.190000;0.003060
1.228000;0.003060
1.266000;0.002265
1.304000;0.002265
1.344000;0.003840
1.382000;0.002265
1.420000;0.003060
1.458000;0.003840
1.496000;0.003060
1.534000;0.002265
1.572000;0.002265
1.610000;0.002265
1.648000;0.003060
1.687000;0.002265
1.725000;0.002265
1.763000;0.003060
1.801000;0.003060
1.839000;0.003840
1.877000;0.003060
1.915000;0.002265
1.953000;0.003060
1.991000;0.003840
2.029000;0.003060
2.067000;0.002265
2.105000;0.002265
2.143000;0.003840
2.181000;0.002265
2.219000;0.003060
2.257000;0.003060
2.295000;0.003840
2.334000;0.003060
2.372000;0.003060
2.410000;0.003060
2.448000;0.003840
2.486000;0.003060
2.524000;0.003060
2.562000;0.003060
2.600000;0.004635
2.638000;0.004635
2.676000;0.003840
2.714000;0.003840
2.752000;0.003060
2.790000;0.003060
2.828000;0.003840
2.866000;0.003060
2.904000;0.003840
2.943000;0.002265
2.981000;0.004635
3.019000;0.004635
3.057000;0.003060
3.095000;0.003840
3.133000;0.003840
3.171000;0.003060
3.209000;0.004635
3.247000;0.005430
3.285000;0.004635
3.323000;0.004635
3.361000;0.003060
3.399000;0.002265
3.438000;0.003060
3.476000;0.003840
3.514000;0.003060
3.552000;0.003840
3.590000;0.005430
3.628000;0.003840
3.666000;0.003840
3.704000;0.003840
3.742000;0.004635
3.780000;0.004635
3.818000;0.003060
3.856000;0.003840
3.894000;0.005430
3.932000;0.003840
3.970000;0.004635
4.008000;0.004635
4.046000;0.003840
4.084000;0.004635
4.123000;0.003840
4.161000;0.005430
4.199000;0.004635
4.237000;0.005430
4.275000;0.004635
4.313000;0.004635
4.351000;0.003840
4.389000;0.005430
4.427000;0.003840
4.466000;0.004635
4.504000;0.004635
4.542000;0.005430
4.580000;0.005430
4.618000;0.005430
4.656000;0.004635
4.694000;0.004635
4.733000;0.003840
4.771000;0.003840
4.809000;0.004635
4.847000;0.003840
4.885000;0.004635
4.923000;0.003060
4.961000;0.003840
4.999000;0.005430
5.037000;0.003840
5.077000;0.003840
5.115000;0.005430
5.153000;0.003840
5.191000;0.003840
5.230000;0.004635
5.268000;0.012555
5.306000;0.049003
5.344000;86.146368
5.382000;100.554840
5.420000;100.115176
5.458000;99.776908
5.496000;99.601835
5.534000;99.530542
5.572000;99.536872
5.610000;99.549547
5.648000;99.555096
5.686000;99.517073
5.724000;99.507563
5.762000;99.525787
5.800000;99.532117
5.839000;99.530542
5.877000;99.541627
5.915000;99.563811
5.953000;99.597080
5.991000;99.629569
6.029000;99.662837
6.067000;99.696901
6.105000;99.732555
6.143000;99.765029
6.181000;99.795927
6.219000;99.826031
6.257000;99.848996
6.295000;99.862465
6.334000;99.867220
6.372000;99.868015
6.410000;99.863260
6.449000;99.860890
6.487000;99.860095
6.525000;99.861670
6.563000;99.860890
6.601000;99.862465
6.639000;99.860890
6.677000;99.858505
6.715000;99.859300
6.753000;99.860890
6.791000;99.858505
6.830000;99.860890
6.868000;99.860890
6.906000;99.859300
6.944000;99.860095
6.982000;99.860890
7.020000;99.860095
7.058000;99.860095
7.096000;99.859300
7.134000;99.860095
7.172000;99.860890
7.210000;99.860890
7.248000;99.860890
7.286000;99.858505
7.324000;99.859300
7.363000;99.860095
7.401000;99.859300
7.439000;99.860890
7.477000;99.859300
7.515000;99.856930
7.553000;99.859300
7.591000;99.860095
7.629000;99.860095
7.668000;99.858505
7.706000;99.859300
7.744000;99.857710
7.782000;99.857710
7.820000;99.858505
7.858000;99.860890
7.896000;99.859300
7.934000;99.860095
7.972000;99.859300
8.010000;99.860095
8.048000;99.858505
8.086000;99.860890
8.124000;99.858505
8.162000;99.859300
8.201000;99.858505
8.239000;99.857710
8.277000;99.859300
8.315000;99.860095
8.353000;99.857710
8.391000;99.860890
8.429000;99.859300
8.467000;99.860095
8.505000;99.856930
8.543000;99.858505
8.582000;99.859300
8.620000;99.856930
8.658000;99.859300
8.696000;99.860890
8.734000;99.858505
8.772000;99.858505
8.810000;99.858505
8.848000;99.859300
8.886000;99.860095
8.924000;99.859300
8.962000;99.860095
9.000000;99.860890
9.039000;99.860890
9.077000;99.860095
9.115000;99.860095
9.153000;99.860890
9.191000;99.859300
9.229000;99.857710
9.267000;99.860095
9.305000;99.860095
9.343000;99.858505
9.381000;99.858505
9.419000;99.860095
9.457000;99.860095
9.495000;99.860890
9.534000;99.859300
9.572000;99.858505
9.610000;99.858505
9.648000;99.860095
9.686000;99.859300
9.724000;99.856930
9.762000;99.860095
9.800000;99.858505
9.839000;99.860095
9.877000;99.858505
9.915000;99.859300
9.953000;99.860095
9.991000;99.860095
10.029000;99.859300
10.067000;99.860890
10.105000;99.859300
10.143000;99.860095
10.181000;99.858505
10.219000;99.858505
10.257000;99.860890
10.295000;99.858505
10.334000;99.860095
10.372000;99.860890
10.410000;99.860890
10.448000;99.862465
10.486000;99.858505
10.524000;99.860095
10.562000;99.859300
10.600000;99.858505
10.638000;99.856930
10.676000;99.857710
10.714000;99.860095
10.752000;99.859300
10.790000;99.858505
10.828000;99.863260
10.867000;99.857710
10.905000;99.859300
10.943000;99.859300
10.981000;99.859300
11.019000;99.858505
11.057000;99.858505
11.095000;99.859300
11.133000;99.857710
11.171000;99.857710
11.209000;99.859300
11.247000;99.860095
11.285000;99.860095
11.323000;99.858505
11.361000;99.860095
11.400000;99.859300
11.438000;99.859300
11.476000;99.856930
11.514000;99.859300
11.552000;99.859300
11.590000;99.860890
11.628000;99.858505
11.666000;99.856930
11.704000;99.859300
11.742000;99.859300
11.781000;99.856930
11.819000;99.857710
11.857000;99.858505
11.895000;99.859300
11.933000;99.859300
11.971000;99.859300
12.009000;99.859300
12.047000;99.860095
12.085000;99.859300
12.123000;99.857710
12.161000;99.859300
12.199000;99.859300
12.238000;99.859300
12.276000;99.859300
12.314000;99.857710
12.352000;99.860095
12.390000;99.860095
12.428000;99.858505
12.466000;99.858505
12.504000;99.859300
12.542000;99.859300
12.580000;99.859300
12.618000;99.859300
12.656000;99.859300
12.694000;99.856930
12.732000;99.857710
12.770000;99.858505
12.808000;99.858505
12.847000;99.860095
12.885000;99.858505
12.923000;99.859300
12.961000;99.859300
12.999000;99.860095
13.038000;99.860890
13.076000;99.857710
13.114000;99.858505
13.152000;99.858505
13.190000;99.859300
13.228000;99.860095
13.266000;99.860095
13.304000;99.859300
13.342000;99.858505
13.381000;99.856930
13.419000;99.857710
13.457000;99.856930
13.495000;99.858505
13.533000;99.859300
13.571000;99.860095
13.609000;99.857710
13.647000;99.858505
13.685000;99.858505
13.723000;99.860095
13.761000;99.859300
13.799000;99.858505
13.837000;99.859300
13.875000;99.859300
13.914000;99.859300
13.952000;99.858505
13.990000;99.859300
14.028000;99.857710
14.066000;99.860095
14.104000;99.860095
14.142000;99.856135
14.180000;99.857710
14.218000;99.860095
14.256000;99.860095
14.294000;99.860095
14.334000;99.860890
14.373000;99.859300
14.411000;99.858505
14.449000;99.860890
14.487000;99.857710
14.525000;99.856930
14.563000;99.857710
14.601000;99.857710
14.639000;99.858505
14.677000;99.859300
14.715000;99.857710
14.753000;99.860890
14.791000;99.859300
14.829000;99.860890
14.867000;99.858505
14.906000;99.859300
14.944000;99.860095
14.982000;99.858505
15.020000;99.860095
15.058000;99.860095
15.096000;99.860095
15.134000;99.859300
15.172000;99.860095
15.210000;99.860890
15.248000;99.860890
15.286000;99.860095
15.324000;99.861670
15.362000;99.861670
15.400000;99.860890
15.438000;99.858505
15.477000;99.860890
15.515000;99.861670
15.553000;99.860890
15.591000;99.858505
15.629000;99.860890
15.667000;99.859300
15.705000;99.861670
15.743000;99.860095
15.781000;99.859300
15.819000;99.859300
15.857000;99.856930
15.895000;99.859300
15.933000;99.860095
15.971000;99.859300
16.010000;99.858505
16.048000;99.858505
16.086000;99.858505
16.124000;99.857710
16.162000;99.857710
16.200000;99.857710
16.238000;99.859300
16.276000;99.858505
16.314000;99.859300
16.352000;99.859300
16.390000;99.858505
16.429000;99.857710
16.467000;99.859300
16.505000;99.859300
16.543000;99.860095
16.581000;99.858505
16.619000;99.860095
16.657000;99.857710
16.695000;99.857710
16.733000;99.856930
16.771000;99.856930
16.809000;99.858505
16.847000;99.858505
16.885000;99.857710
16.923000;99.858505
16.961000;99.859300
17.000000;99.859300
17.038000;99.856930
17.076000;99.859300
17.114000;99.859300
17.152000;99.860095
17.190000;99.859300
17.228000;99.858505
17.266000;99.855340
17.304000;99.858505
17.342000;99.857710
17.380000;99.859300
17.418000;99.858505
17.457000;99.858505
17.495000;99.858505
17.533000;99.857710
17.571000;99.858505
17.609000;99.858505
17.647000;99.859300
17.685000;99.857710
17.723000;99.855340
17.761000;99.854545
17.799000;99.856135
17.837000;99.858505
17.876000;99.857710
17.914000;99.856930
17.952000;99.856930
17.990000;99.857710
18.028000;99.857710
18.066000;99.856930
18.104000;99.857710
18.142000;99.856930
18.180000;99.857710
18.218000;99.857710
18.256000;99.856930
18.294000;99.857710
18.332000;99.857710
18.371000;99.856135
18.409000;99.856930
18.447000;99.858505
18.485000;99.856135
18.523000;99.857710
18.561000;99.857710
18.599000;99.858505
18.637000;99.857710
18.675000;99.856930
18.713000;99.858505
18.752000;99.859300
18.790000;99.858505
18.828000;99.858505
18.866000;99.858505
18.904000;99.858505
18.942000;99.857710
18.980000;99.856930
19.018000;99.859300
19.056000;99.856135
19.094000;99.857710
19.132000;99.856930
19.170000;99.858505
19.208000;99.857710
19.246000;99.857710
19.285000;99.859300
19.323000;99.858505
19.361000;99.858505
19.399000;99.859300
19.437000;99.861670
19.475000;99.858505
19.514000;99.856930
19.552000;99.856930
19.590000;99.857710
19.628000;99.857710
19.666000;99.858505
19.704000;99.856135
19.742000;99.855340
19.780000;99.856135
19.818000;99.856930
19.856000;99.856135
19.894000;99.853750
19.932000;99.856930
19.970000;99.857710
20.008000;99.856930
20.047000;99.857710
20.085000;99.853750
20.123000;99.856930
20.161000;99.856135
20.199000;99.856930
20.237000;99.856135
20.275000;99.856135
20.313000;98.993427
20.351000;83.324792
20.389000;100.067838
20.428000;100.024279
20.466000;100.013180
20.504000;100.014769
20.542000;100.022689
20.581000;100.027444
20.619000;100.024279
20.657000;100.025059
20.695000;100.018729
20.733000;100.014769
20.771000;100.009220
20.809000;100.004465
20.847000;99.999710
20.885000;99.996545
20.923000;99.993380
20.961000;99.989420
20.999000;99.987830
21.037000;99.982281
21.076000;99.980706
21.114000;99.976746
21.152000;99.972786
21.190000;99.969606
21.228000;99.960111
21.266000;99.936337
21.304000;99.899904
21.342000;99.878514
21.380000;99.880884
21.418000;99.889599
21.456000;99.900699
21.495000;99.911783
21.533000;99.921293
21.571000;99.925253
21.609000;99.926828
21.647000;99.926048
21.685000;99.925253
21.723000;99.926828
21.761000;99.926048
21.799000;99.925253
21.838000;99.925253
21.877000;99.925253
21.915000;99.925253
21.953000;99.925253
21.991000;99.922868
22.029000;99.922868
22.067000;99.922868
22.105000;99.923663
22.143000;99.923663
22.181000;99.922868
22.219000;99.923663
22.257000;99.925253
22.295000;99.924458
22.333000;99.927623
22.372000;99.926048
22.410000;99.925253
22.448000;99.926048
22.486000;99.925253
22.524000;99.923663
22.562000;99.925253
22.600000;99.927623
22.638000;99.927623
22.677000;99.926048
22.715000;99.926048
22.753000;99.926048
22.791000;99.926048
22.829000;99.924458
22.867000;99.925253
22.905000;99.926048
22.943000;99.924458
22.981000;99.924458
23.019000;99.926048
23.057000;99.923663
23.095000;99.925253
23.133000;99.923663
23.172000;99.925253
23.210000;99.926048
23.248000;99.926048
23.286000;99.925253
23.324000;99.922868
23.362000;99.925253
23.400000;99.924458
23.438000;99.926048
23.476000;99.923663
23.514000;99.922868
23.553000;99.923663
23.591000;99.927623
23.629000;99.926828
23.667000;99.925253
23.705000;99.926048
23.743000;99.924458
23.781000;99.924458
23.819000;99.926048
23.857000;99.926048
23.895000;99.923663
23.933000;99.925253
23.971000;99.924458
24.009000;99.922868
24.047000;99.924458
24.085000;99.923663
24.123000;99.924458
24.161000;99.922088
24.199000;99.923663
24.237000;99.925253
24.276000;99.926048
24.314000;99.926048
24.352000;99.925253
24.390000;99.921293
24.428000;99.923663
24.466000;99.923663
24.504000;99.922088
24.542000;99.920498
24.581000;99.921293
24.619000;99.922088
24.657000;99.921293
24.695000;99.922088
24.733000;99.923663
24.771000;99.923663
24.809000;99.922868
24.847000;99.925253
24.885000;99.924458
24.923000;99.923663
24.961000;99.923663
24.999000;99.922868
25.037000;99.922868
25.076000;99.924458
25.114000;99.924458
25.152000;99.924458
25.190000;99.924458
25.228000;99.923663
25.266000;99.925253
25.304000;99.924458
25.342000;99.924458
25.380000;99.926048
25.418000;99.922088
25.456000;99.924458
25.494000;99.926048
25.532000;99.923663
25.570000;99.924458
25.608000;99.925253
25.647000;99.922868
25.685000;99.924458
25.723000;99.926048
25.761000;99.924458
25.799000;99.924458
25.837000;99.922868
25.876000;99.923663
25.914000;99.922868
25.952000;99.923663
25.990000;99.924458
26.028000;99.926828
26.066000;99.923663
26.104000;99.920498
26.142000;99.923663
26.181000;99.921293
26.219000;99.922088
26.257000;99.920498
26.295000;99.922868
26.333000;99.923663
26.371000;99.923663
26.409000;99.922868
26.447000;99.922868
26.485000;99.922868
26.523000;99.920498
26.561000;99.923663
26.599000;99.922868
26.637000;99.924458
26.676000;99.922088
26.714000;99.922868
26.752000;99.924458
26.790000;99.923663
26.828000;99.924458
26.866000;99.922868
26.904000;99.925253
26.942000;99.920498
26.980000;99.923663
27.018000;99.924458
27.056000;99.922868
27.094000;99.922088
27.133000;99.922088
27.171000;99.923663
27.209000;99.924458
27.247000;99.923663
27.285000;99.924458
27.323000;99.923663
27.361000;99.923663
27.399000;99.926048
27.437000;99.923663
27.475000;99.922868
27.513000;99.922868
27.551000;99.923663
27.590000;99.924458
27.628000;99.922868
27.666000;99.924458
27.704000;99.921293
27.742000;99.922088
27.780000;99.923663
27.818000;99.922868
27.856000;99.923663
27.894000;99.923663
27.932000;99.922868
27.971000;99.921293
28.009000;99.923663
28.047000;99.925253
28.085000;99.925253
28.123000;99.926048
28.161000;99.924458
28.199000;99.924458
28.237000;99.923663
28.275000;99.923663
28.313000;99.922088
28.351000;99.922868
28.390000;99.922088
28.428000;99.926048
28.466000;99.924458
28.504000;99.924458
28.542000;99.922868
28.580000;99.923663
28.618000;99.922088
28.657000;99.923663
28.695000;99.922868
28.733000;99.922088
28.772000;99.923663
28.810000;99.923663
28.848000;99.924458
28.886000;99.923663
28.924000;99.923663
28.962000;99.922868
29.000000;99.922088
29.038000;99.923663
29.077000;99.924458
29.115000;99.923663
29.153000;99.922868
29.191000;99.922088
29.229000;99.922088
29.267000;99.923663
29.305000;99.920498
29.343000;99.921293
29.382000;99.923663
29.420000;99.922088
29.458000;99.923663
29.496000;99.923663
29.534000;99.922088
29.572000;99.920498
29.610000;99.922868
29.648000;99.921293
29.686000;99.922088
29.724000;99.922088
29.762000;99.923663
29.800000;99.922088
29.838000;99.922868
29.877000;99.922088
29.915000;99.922868
29.953000;99.922868
29.991000;99.923663
30.029000;99.923663
30.067000;99.920498
30.105000;99.922088
30.143000;99.923663
30.181000;99.922868
30.219000;99.922868
30.258000;99.922868
30.296000;99.923663
30.334000;99.922868
30.372000;99.924458
30.410000;99.925253
30.448000;99.924458
30.486000;99.924458
30.524000;99.924458
30.562000;99.923663
30.600000;99.923663
30.638000;99.921293
30.676000;99.922088
30.715000;99.924458
30.753000;99.923663
30.791000;99.921293
30.829000;99.922088
30.867000;99.921293
30.905000;99.923663
30.943000;99.924458
30.981000;99.922868
31.019000;99.922868
31.058000;99.922088
31.096000;99.920498
31.134000;99.924458
31.172000;99.925253
31.210000;99.923663
31.248000;99.922088
31.286000;99.922868
31.324000;99.924458
31.362000;99.923663
31.400000;99.924458
31.438000;99.923663
31.476000;99.922868
31.514000;99.922868
31.553000;99.925253
31.591000;99.924458
31.629000;99.923663
31.667000;99.922088
31.705000;99.921293
31.743000;99.922088
31.781000;99.922088
31.819000;99.922868
31.857000;99.922088
31.896000;99.922868
31.934000;99.922868
31.972000;99.920498
32.010000;99.923663
32.048000;99.922868
32.086000;99.923663
32.124000;99.922088
32.162000;99.921293
32.200000;99.922868
32.238000;99.922088
32.276000;99.922088
32.314000;99.923663
32.353000;99.921293
32.391000;99.922088
32.429000;99.922088
32.467000;99.924458
32.505000;99.920498
32.543000;99.921293
32.581000;99.918908
32.619000;99.922088
32.657000;99.921293
32.695000;99.922088
32.734000;99.922088
32.772000;99.921293
32.810000;99.921293
32.848000;99.920498
32.886000;99.921293
32.924000;99.921293
32.962000;99.922088
33.000000;99.921293
33.038000;99.922868
33.076000;99.923663
33.114000;99.921293
33.152000;99.922088
33.190000;99.920498
33.229000;99.922088
33.267000;99.923663
33.305000;99.923663
33.343000;99.923663
33.381000;99.921293
33.419000;99.922868
33.457000;99.923663
33.495000;99.922088
33.533000;99.921293
33.571000;99.920498
33.609000;99.921293
33.647000;99.919703
33.685000;99.921293
33.723000;99.922868
33.762000;99.920498
33.800000;99.920498
33.838000;99.921293
33.876000;99.920498
33.914000;99.921293
33.952000;99.920498
33.990000;99.921293
34.028000;99.918908
34.066000;99.921293
34.104000;99.923663
34.142000;99.923663
34.181000;99.921293
34.219000;99.921293
34.257000;99.920498
34.295000;99.920498
34.333000;99.921293
34.371000;99.919703
34.409000;99.921293
34.447000;99.920498
34.485000;99.919703
34.523000;99.919703
34.561000;99.921293
34.600000;99.922868
34.638000;99.922868
34.676000;99.921293
34.714000;99.922088
34.752000;99.923663
34.790000;99.922088
34.828000;99.918113
34.866000;99.920498
34.904000;99.919703
34.942000;99.919703
34.981000;99.920498
35.019000;99.920498
35.057000;99.920498
35.095000;99.921293
35.133000;99.919703
35.171000;99.919703
35.209000;99.920498
35.247000;99.918908
35.285000;99.921293
35.323000;75.406808
35.361000;99.087698
35.399000;100.073987
35.437000;100.018534
35.476000;99.990800
35.514000;99.971001
35.552000;99.954367
35.590000;99.941692
35.628000;99.930593
35.666000;99.925838
35.704000;99.918713
35.742000;99.911588
35.780000;99.896529
35.818000;99.877524
35.856000;99.861670
35.894000;99.850585
35.933000;99.849791
35.971000;99.853750
36.009000;99.856135
36.047000;99.857710
36.085000;99.857710
36.123000;99.858505
36.161000;99.858505
36.199000;99.859300
36.237000;99.853750
36.275000;99.854545
36.313000;99.857710
36.351000;99.856135
36.389000;99.856930
36.427000;99.856930
36.465000;99.856930
36.504000;99.860095
36.542000;99.856930
36.580000;99.856930
36.618000;99.858505
36.656000;99.860890
36.694000;99.859300
36.732000;99.858505
36.770000;99.859300
36.808000;99.857710
36.846000;99.858505
36.884000;99.860095
36.922000;99.857710
36.961000;99.857710
36.999000;99.860890
37.037000;99.858505
37.075000;99.857710
37.113000;99.860095
37.151000;99.860095
37.189000;99.859300
37.227000;99.857710
37.265000;99.859300
37.303000;99.859300
37.341000;99.857710
37.380000;99.861670
37.418000;99.858505
37.458000;99.856930
37.496000;99.857710
37.534000;99.860095
37.572000;99.860095
37.610000;99.858505
37.648000;99.858505
37.686000;99.856930
37.724000;99.858505
37.762000;99.860095
37.800000;99.859300
37.838000;99.858505
37.877000;99.858505
37.915000;99.859300
37.953000;99.858505
37.991000;99.860095
38.029000;99.861670
38.067000;99.860095
38.105000;99.857710
38.143000;99.858505
38.181000;99.856135
38.219000;99.856930
38.258000;99.860890
38.296000;99.860890
38.334000;99.856135
38.372000;99.857710
38.410000;99.856930
38.448000;99.857710
38.486000;99.858505
38.524000;99.859300
38.562000;99.858505
38.600000;99.856930
38.638000;99.859300
38.676000;99.857710
38.714000;99.856135
38.752000;99.859300
38.790000;99.856930
38.828000;99.859300
38.866000;99.856135
38.904000;99.858505
38.942000;99.858505
38.981000;99.858505
39.019000;99.857710
39.057000;99.856930
39.095000;99.857710
39.133000;99.858505
39.172000;99.858505
39.210000;99.856930
39.248000;99.858505
39.286000;99.859300
39.324000;99.857710
39.362000;99.860095
39.400000;99.858505
39.439000;99.858505
39.477000;99.858505
39.515000;99.857710
39.553000;99.859300
39.591000;99.858505
39.629000;99.857710
39.667000;99.855340
39.705000;99.857710
39.743000;99.855340
39.781000;99.857710
39.819000;99.854545
39.857000;99.857710
39.895000;99.857710
39.933000;99.857710
39.971000;99.857710
40.010000;99.856930
40.048000;99.857710
40.086000;99.858505
40.124000;99.858505
40.162000;99.858505
40.200000;99.859300
40.238000;99.856930
40.276000;99.858505
40.314000;99.857710
40.352000;99.859300
40.390000;99.857710
40.428000;99.854545
40.467000;99.857710
40.505000;99.859300
40.543000;99.857710
40.581000;99.859300
40.619000;99.856930
40.657000;99.857710
40.695000;99.859300
40.733000;99.857710
40.771000;99.858505
40.809000;99.856135
40.847000;99.857710
40.886000;99.858505
40.924000;99.856930
40.962000;99.856930
41.000000;99.861670
41.038000;99.856930
41.076000;99.856930
41.114000;99.857710
41.152000;99.856135
41.190000;99.856135
41.228000;99.859300
41.266000;99.857710
41.304000;99.858505
41.342000;99.857710
41.380000;99.860095
41.418000;99.857710
41.456000;99.856930
41.494000;99.857710
41.532000;99.856930
41.570000;99.858505
41.608000;99.858505
41.647000;99.857710
41.685000;99.858505
41.723000;99.858505
41.761000;99.856930
41.799000;99.859300
41.837000;99.856930
41.875000;99.856135
41.913000;99.855340
41.951000;99.857710
41.989000;99.856930
42.028000;99.856930
42.066000;99.854545
42.104000;99.855340
42.142000;99.856135
42.180000;99.856135
42.218000;99.856930
42.256000;99.856930
42.294000;99.856930
42.332000;99.856135
42.370000;99.856135
42.408000;99.858505
42.446000;99.860095
42.485000;99.857710
42.523000;99.857710
42.561000;99.858505
42.599000;99.856135
42.637000;99.854545
42.675000;99.856135
42.713000;99.856135
42.751000;99.854545
42.790000;99.856135
42.828000;99.857710
42.866000;99.859300
42.904000;99.856930
42.942000;99.856930
42.980000;99.856930
43.018000;99.855340
43.057000;99.857710
43.096000;99.859300
43.134000;99.859300
43.172000;99.858505
43.210000;99.857710
43.248000;99.859300
43.286000;99.858505
43.324000;99.857710
43.362000;99.856135
43.400000;99.856135
43.438000;99.859300
43.476000;99.855340
43.514000;99.858505
43.552000;99.856135
43.591000;99.855340
43.629000;99.855340
43.667000;99.856930
43.705000;99.856135
43.743000;99.857710
43.781000;99.856135
43.819000;99.855340
43.857000;99.857710
43.895000;99.856135
43.933000;99.856930
43.971000;99.856135
44.010000;99.857710
44.048000;99.855340
44.086000;99.856135
44.124000;99.858505
44.162000;99.856930
44.200000;99.856135
44.238000;99.857710
44.276000;99.856930
44.314000;99.857710
44.352000;99.856930
44.390000;99.856135
44.428000;99.856135
44.466000;99.858505
44.504000;99.860890
44.542000;99.856930
44.580000;99.853750
44.618000;99.854545
44.656000;99.855340
44.695000;99.857710
44.733000;99.857710
44.771000;99.857710
44.809000;99.855340
44.847000;99.856135
44.885000;99.857710
44.923000;99.857710
44.961000;99.857710
44.999000;99.857710
45.037000;99.856930
45.075000;99.856135
45.113000;99.857710
45.151000;99.857710
45.190000;99.856135
45.228000;99.858505
45.266000;99.857710
45.304000;99.852955
45.342000;99.858505
45.380000;99.856135
45.418000;99.857710
45.456000;99.859300
45.494000;99.856135
45.532000;99.858505
45.571000;99.858505
45.609000;99.857710
45.647000;99.858505
45.685000;99.859300
45.723000;99.856135
45.761000;99.857710
45.799000;99.860095
45.837000;99.856930
45.875000;99.855340
45.913000;99.855340
45.951000;99.856930
45.989000;99.857710
46.027000;99.855340
46.065000;99.856930
46.103000;99.855340
46.141000;99.858505
46.179000;99.856930
46.217000;99.858505
46.255000;99.855340
46.294000;99.853750
46.332000;99.855340
46.370000;99.857710
46.408000;99.858505
46.446000;99.859300
46.484000;99.855340
46.522000;99.855340
46.560000;99.855340
46.598000;99.855340
46.636000;99.856930
46.674000;99.856135
46.713000;99.856135
46.751000;99.856135
46.789000;99.853750
46.827000;99.854545
46.865000;99.856135
46.903000;99.854545
46.941000;99.856930
46.979000;99.857710
47.017000;99.856135
47.055000;99.854545
47.093000;99.856135
47.131000;99.856135
47.169000;99.854545
47.207000;99.857710
47.245000;99.856930
47.284000;99.855340
47.322000;99.856930
47.360000;99.857710
47.398000;99.857710
47.436000;99.856135
47.474000;99.855340
47.512000;99.855340
47.550000;99.857710
47.588000;99.856135
47.626000;99.856930
47.664000;99.856135
47.702000;99.857710
47.740000;99.856135
47.778000;99.855340
47.816000;99.856135
47.855000;99.856135
47.893000;99.856930
47.931000;99.854545
47.969000;99.857710
48.007000;99.855340
48.045000;99.856135
48.083000;99.857710
48.121000;99.853750
48.159000;99.854545
48.197000;99.855340
48.235000;99.857710
48.273000;99.853750
48.312000;99.857710
48.350000;99.854545
48.388000;99.856930
48.426000;99.857710
48.464000;99.857710
48.502000;99.858505
48.540000;99.857710
48.578000;99.858505
48.616000;99.856135
48.654000;99.856135
48.693000;99.856135
48.731000;99.853750
48.769000;99.854545
48.807000;99.852955
48.845000;99.855340
48.883000;99.855340
48.921000;99.854545
48.959000;99.854545
48.997000;99.853750
49.035000;99.853750
49.073000;99.856135
49.111000;99.856135
49.149000;99.856930
49.188000;99.854545
49.226000;99.855340
49.266000;99.856135
49.304000;99.852955
49.342000;99.853750
49.380000;99.854545
49.418000;99.852955
49.456000;99.852175
49.494000;99.852955
49.532000;99.852955
49.570000;99.855340
49.608000;99.853750
49.647000;99.853750
49.685000;99.852955
49.723000;99.854545
49.761000;99.855340
49.799000;99.852955
49.837000;99.853750
49.875000;99.853750
49.913000;99.854545
49.951000;99.856135
49.989000;99.856930
50.028000;99.856930
50.066000;99.856135
50.104000;99.856135
50.142000;99.854545
50.180000;99.854545
50.218000;99.856135
50.256000;99.852955
50.294000;93.312565
50.332000;95.914370
50.370000;100.058343
50.408000;100.018729
50.446000;100.010810
50.484000;100.012385
50.523000;100.021099
50.561000;100.021894
50.599000;100.021099
50.637000;100.019524
50.675000;100.015564
50.713000;100.013180
50.751000;100.005260
50.789000;100.002890
50.827000;99.998135
50.865000;99.994175
50.903000;99.990215
50.942000;99.987035
50.980000;99.986256
51.018000;99.983076
51.056000;99.977541
51.094000;99.976746
51.134000;99.970401
51.172000;99.968031
51.210000;99.960111
51.248000;99.934762
51.286000;99.894354
51.325000;99.872170
51.363000;99.875335
51.401000;99.884844
51.439000;99.896724
51.477000;99.908618
51.515000;99.917333
51.553000;99.921293
51.591000;99.922868
51.629000;99.924458
51.667000;99.922868
51.705000;99.922088
51.743000;99.925253
51.781000;99.924458
51.819000;99.923663
51.858000;99.920498
51.896000;99.922868
51.934000;99.925253
51.972000;99.922868
52.010000;99.924458
52.048000;99.921293
52.086000;99.922868
52.124000;99.922868
52.163000;99.922088
52.201000;99.922868
52.239000;99.924458
52.277000;99.922868
52.315000;99.921293
52.353000;99.922868
52.391000;99.921293
52.429000;99.922088
52.467000;99.919703
52.505000;99.922088
52.543000;99.920498
52.581000;99.921293
52.619000;99.921293
52.658000;99.922868
52.696000;99.922088
52.734000;99.921293
52.772000;99.922868
52.810000;99.922088
52.848000;99.921293
52.886000;99.922088
52.924000;99.922868
52.962000;99.924458
53.000000;99.924458
53.038000;99.924458
53.076000;99.923663
53.115000;99.921293
53.153000;99.922868
53.191000;99.922868
53.229000;99.924458
53.267000;99.924458
53.305000;99.922088
53.343000;99.922088
53.381000;99.921293
53.419000;99.921293
53.457000;99.922088
53.495000;99.922868
53.533000;99.921293
53.571000;99.919703
53.610000;99.922088
53.648000;99.922088
53.686000;99.923663
53.724000;99.923663
53.762000;99.923663
53.800000;99.922088
53.838000;99.922088
53.876000;99.925253
53.914000;99.922868
53.952000;99.921293
53.991000;99.923663
54.029000;99.922868
54.067000;99.922868
54.105000;99.924458
54.143000;99.922088
54.181000;99.922088
54.221000;99.922868
54.259000;99.921293
54.297000;99.921293
54.335000;99.923663
54.373000;99.922088
54.411000;99.922088
54.449000;99.922868
54.488000;99.923663
54.526000;99.922088
54.564000;99.922868
54.602000;99.924458
54.640000;99.921293
54.678000;99.921293
54.716000;99.922868
54.754000;99.921293
54.792000;99.920498
54.830000;99.919703
54.868000;99.921293
54.906000;99.919703
54.944000;99.922868
54.983000;99.922868
55.021000;99.919703
55.059000;99.920498
55.097000;99.921293
55.135000;99.922868
55.173000;99.921293
55.211000;99.921293
55.249000;99.919703
55.287000;99.922088
55.325000;99.921293
55.363000;99.922868
55.401000;99.921293
55.440000;99.921293
55.478000;99.922868
55.516000;99.922088
55.554000;99.922088
55.592000;99.920498
55.630000;99.922088
55.668000;99.921293
55.706000;99.922868
55.744000;99.922088
55.782000;99.922868
55.820000;99.921293
55.858000;99.922088
55.897000;99.923663
55.935000;99.925253
55.973000;99.922868
56.011000;99.920498
56.049000;99.920498
56.087000;99.921293
56.125000;99.922088
56.163000;99.922868
56.201000;99.921293
56.239000;99.923663
56.278000;99.924458
56.316000;99.922868
56.354000;99.922088
56.392000;99.921293
56.430000;99.923663
56.468000;99.922088
56.506000;99.920498
56.544000;99.921293
56.582000;99.922868
56.620000;99.922088
56.658000;99.924458
56.696000;99.923663
56.735000;99.923663
56.773000;99.920498
56.811000;99.919703
56.849000;99.920498
56.887000;99.921293
56.925000;99.921293
56.963000;99.925253
57.001000;99.924458
57.039000;99.922868
57.077000;99.923663
57.115000;99.922868
57.153000;99.924458
57.192000;99.922868
57.230000;99.922868
57.268000;99.921293
57.306000;99.921293
57.344000;99.923663
57.382000;99.922088
57.420000;99.922868
57.458000;99.919703
57.496000;99.920498
57.534000;99.921293
57.572000;99.921293
57.610000;99.922088
57.649000;99.922868
57.687000;99.921293
57.725000;99.918113
57.763000;99.918908
57.801000;99.922868
57.839000;99.921293
57.877000;99.921293
57.915000;99.921293
57.953000;99.922088
57.991000;99.921293
58.030000;99.922868
58.068000;99.922088
58.106000;99.922088
58.144000;99.922088
58.182000;99.921293
58.220000;99.922868
58.258000;99.925253
58.296000;99.923663
58.334000;99.922868
58.372000;99.924458
58.410000;99.922868
58.448000;99.922868
58.487000;99.923663
58.525000;99.923663
58.563000;99.923663
58.601000;99.922868
58.639000;99.922868
58.677000;99.922868
58.715000;99.922088
58.753000;99.922088
58.791000;99.919703
58.829000;99.919703
58.867000;99.920498
58.905000;99.923663
58.944000;99.921293
58.982000;99.921293
59.020000;99.921293
59.058000;99.922088
59.096000;99.921293
59.134000;99.921293
59.172000;99.921293
59.210000;99.920498
59.248000;99.921293
59.287000;99.920498
59.325000;99.920498
59.363000;99.919703
59.401000;99.922088
59.439000;99.919703
59.477000;99.922088
59.515000;99.923663
59.553000;99.924458
59.591000;99.924458
59.629000;99.923663
59.667000;99.922868
59.705000;99.924458
59.743000;99.923663
59.782000;99.924458
59.820000;99.922088
59.858000;99.922868
59.896000;99.922868
59.934000;99.922868
59.972000;99.923663
60.010000;99.922088
60.048000;99.921293
60.087000;99.922088
60.125000;99.922088
60.163000;99.921293
60.201000;99.922088
60.239000;99.919703
60.277000;99.919703
60.315000;99.920498
60.353000;99.921293
60.391000;99.919703
60.429000;99.922088
60.467000;99.921293
60.505000;99.921293
60.543000;99.922088
60.582000;99.920498
60.620000;99.922088
60.658000;99.921293
60.696000;99.919703
60.734000;99.919703
60.772000;99.919703
60.810000;99.919703
60.848000;99.921293
60.886000;99.918908
60.924000;99.920498
60.962000;99.921293
61.000000;99.923663
61.039000;99.922088
61.077000;99.921293
61.115000;99.920498
61.153000;99.922088
61.191000;99.922868
61.229000;99.921293
61.267000;99.921293
61.305000;99.919703
61.343000;99.918908
61.381000;99.920498
61.419000;99.921293
61.457000;99.920498
61.495000;99.920498
61.533000;99.920498
61.572000;99.922868
61.610000;99.920498
61.648000;99.921293
61.686000;99.922088
61.724000;99.921293
61.762000;99.919703
61.800000;99.921293
61.838000;99.920498
61.876000;99.923663
61.914000;99.922088
61.952000;99.920498
61.990000;99.922868
62.029000;99.923663
62.067000;99.922868
62.105000;99.922868
62.143000;99.922868
62.181000;99.920498
62.219000;99.922868
62.257000;99.922088
62.295000;99.922868
62.333000;99.922868
62.371000;99.922868
62.409000;99.922868
62.447000;99.920498
62.486000;99.922868
62.524000;99.921293
62.562000;99.920498
62.600000;99.922088
62.638000;99.922868
62.676000;99.921293
62.714000;99.922868
62.752000;99.922088
62.790000;99.920498
62.828000;99.921293
62.866000;99.922088
62.904000;99.922088
62.943000;99.922088
62.981000;99.920498
63.019000;99.921293
63.057000;99.923663
63.095000;99.923663
63.133000;99.922868
63.171000;99.922868
63.209000;99.920498
63.247000;99.920498
63.285000;99.922868
63.324000;99.919703
63.362000;99.918908
63.400000;99.918908
63.438000;99.921293
63.476000;99.922088
63.514000;99.922868
63.552000;99.922868
63.590000;99.921293
63.628000;99.922088
63.666000;99.923663
63.704000;99.921293
63.742000;99.919703
63.781000;99.919703
63.819000;99.920498
63.857000;99.920498
63.895000;99.921293
63.933000;99.921293
63.971000;99.920498
64.009000;99.920498
64.047000;99.919703
64.086000;99.919703
64.124000;99.919703
64.162000;99.920498
64.200000;99.922088
64.238000;99.921293
64.276000;99.919703
64.314000;99.921293
64.352000;99.919703
64.390000;99.919703
64.428000;99.918908
64.466000;99.918908
64.504000;99.919703
64.542000;99.920498
64.581000;99.920498
64.619000;99.922088
64.657000;99.920498
64.695000;99.919703
64.733000;99.920498
64.771000;99.919703
64.809000;99.919703
64.847000;99.919703
64.885000;99.921293
64.923000;99.918908
64.961000;99.919703
64.999000;99.921293
65.037000;99.921293
65.075000;99.919703
65.113000;99.918908
65.152000;99.922868
65.190000;99.923663
65.228000;99.922868
65.266000;99.919703
65.304000;93.600375
65.342000;91.347923
65.380000;100.083497
65.418000;100.021699
65.456000;99.992390
65.494000;99.969411
65.532000;99.955162
65.571000;99.939307
65.609000;99.932182
65.647000;99.923468
65.685000;99.917918
65.723000;99.909998
65.761000;99.895734
65.799000;99.879894
65.837000;99.860890
65.875000;99.848216
65.913000;99.845831
65.951000;99.846626
65.990000;99.849791
66.028000;99.852175
66.066000;99.852955
66.104000;99.851380
66.142000;99.852175
66.180000;99.852175
66.218000;99.850585
66.256000;99.853750
66.294000;99.853750
66.332000;99.852955
66.370000;99.854545
66.408000;99.852175
66.446000;99.854545
66.485000;99.856135
66.523000;99.855340
66.561000;99.852955
66.599000;99.854545
66.637000;99.852955
66.675000;99.854545
66.713000;99.855340
66.751000;99.854545
66.789000;99.853750
66.827000;99.852955
66.865000;99.852955
66.903000;99.853750
66.942000;99.852955
66.980000;99.852175
67.018000;99.852955
67.056000;99.852955
67.094000;99.852955
67.132000;99.855340
67.170000;99.856135
67.208000;99.853750
67.246000;99.854545
67.284000;99.854545
67.322000;99.853750
67.360000;99.854545
67.399000;99.855340
67.437000;99.855340
67.475000;99.852955
67.513000;99.852955
67.551000;99.855340
67.589000;99.852955
67.627000;99.854545
67.665000;99.854545
67.703000;99.855340
67.741000;99.853750
67.780000;99.855340
67.818000;99.855340
67.856000;99.854545
67.894000;99.855340
67.932000;99.855340
67.970000;99.852955
68.008000;99.852955
68.046000;99.855340
68.084000;99.853750
68.122000;99.854545
68.160000;99.854545
68.198000;99.853750
68.237000;99.854545
68.275000;99.854545
68.313000;99.852175
68.351000;99.854545
68.389000;99.852175
68.427000;99.854545
68.465000;99.854545
68.503000;99.855340
68.543000;99.856135
68.581000;99.853750
68.619000;99.853750
68.657000;99.855340
68.695000;99.854545
68.733000;99.853750
68.771000;99.854545
68.809000;99.854545
68.847000;99.850585
68.886000;99.854545
68.924000;99.852955
68.962000;99.852955
69.000000;99.853750
69.038000;99.856135
69.076000;99.856930
69.114000;99.854545
69.152000;99.854545
69.191000;99.852955
69.229000;99.853750
69.267000;99.852955
69.305000;99.853750
69.343000;99.852175
69.381000;99.852955
69.419000;99.852955
69.457000;99.854545
69.495000;99.854545
69.533000;99.852175
69.571000;99.853750
69.609000;99.854545
69.647000;99.853750
69.686000;99.855340
69.724000;99.854545
69.762000;99.854545
69.800000;99.854545
69.838000;99.852175
69.876000;99.852175
69.914000;99.853750
69.952000;99.853750
69.991000;99.852955
70.029000;99.853750
70.067000;99.855340
70.105000;99.856135
70.143000;99.852175
70.181000;99.853750
70.219000;99.853750
70.257000;99.852175
70.295000;99.853750
70.333000;99.853750
70.371000;99.853750
70.409000;99.853750
70.447000;99.853750
70.485000;99.851380
70.524000;99.851380
70.562000;99.852175
70.600000;99.852955
70.638000;99.851380
70.676000;99.854545
70.714000;99.853750
70.752000;99.852955
70.790000;99.855340
70.828000;99.853750
70.866000;99.852955
70.905000;99.853750
70.943000;99.852175
70.981000;99.854545
71.019000;99.852955
71.057000;99.851380
71.095000;99.852955
71.133000;99.852955
71.171000;99.856135
71.209000;99.853750
71.247000;99.853750
71.285000;99.852955
71.323000;99.852955
71.361000;99.852175
71.399000;99.852175
71.438000;99.853750
71.476000;99.853750
71.514000;99.853750
71.552000;99.852175
71.590000;99.853750
71.628000;99.855340
71.666000;99.852955
71.704000;99.854545
71.742000;99.852955
71.780000;99.852175
71.818000;99.856135
71.856000;99.851380
71.895000;99.854545
71.933000;99.852175
71.971000;99.852955
72.009000;99.854545
72.047000;99.854545
72.085000;99.852175
72.123000;99.851380
72.161000;99.850585
72.199000;99.852175
72.237000;99.850585
72.275000;99.851380
72.313000;99.852175
72.351000;99.852955
72.390000;99.852175
72.428000;99.852175
72.466000;99.850585
72.504000;99.849791
72.542000;99.851380
72.580000;99.852955
72.618000;99.852175
72.656000;99.851380
72.694000;99.853750
72.732000;99.850585
72.770000;99.852955
72.808000;99.853750
72.846000;99.853750
72.884000;99.852955
72.922000;99.852955
72.960000;99.852175
72.999000;99.852955
73.037000;99.852955
73.075000;99.853750
73.113000;99.852955
73.151000;99.854545
73.189000;99.852955
73.227000;99.853750
73.265000;99.855340
73.303000;99.852955
73.341000;99.852175
73.379000;99.852955
73.417000;99.854545
73.455000;99.850585
73.494000;99.852955
73.532000;99.853750
73.570000;99.853750
73.608000;99.853750
73.646000;99.853750
73.684000;99.852955
73.722000;99.851380
73.760000;99.853750
73.798000;99.852175
73.836000;99.852955
73.874000;99.852955
73.912000;99.856135
73.950000;99.853750
73.989000;99.853750
74.027000;99.852955
74.065000;99.853750
74.103000;99.855340
74.141000;99.852175
74.179000;99.852175
74.217000;99.853750
74.255000;99.853750
74.293000;99.852175
74.331000;99.855340
74.369000;99.855340
74.407000;99.854545
74.445000;99.854545
74.484000;99.856135
74.522000;99.853750
74.560000;99.854545
74.598000;99.856135
74.636000;99.855340
74.674000;99.852955
74.712000;99.854545
74.750000;99.852955
74.788000;99.853750
74.827000;99.852175
74.865000;99.854545
74.903000;99.851380
74.941000;99.852175
74.979000;99.852955
75.017000;99.853750
75.055000;99.852955
75.093000;99.852175
75.131000;99.854545
75.169000;99.852955
75.207000;99.852175
75.246000;99.852955
75.284000;99.855340
75.322000;99.854545
75.360000;99.854545
75.398000;99.854545
75.436000;99.854545
75.474000;99.854545
75.512000;99.854545
75.550000;99.855340
75.589000;99.852955
75.627000;99.852955
75.665000;99.854545
75.703000;99.853750
75.741000;99.852175
75.779000;99.853750
75.817000;99.852955
75.857000;99.852175
75.895000;99.852175
75.933000;99.852175
75.971000;99.852175
76.009000;99.852175
76.048000;99.852955
76.086000;99.852955
76.124000;99.852955
76.162000;99.854545
76.200000;99.851380
76.238000;99.855340
76.276000;99.854545
76.314000;99.855340
76.352000;99.853750
76.390000;99.854545
76.428000;99.855340
76.466000;99.852175
76.504000;99.852955
76.543000;99.854545
76.581000;99.856135
76.619000;99.853750
76.657000;99.852175
76.695000;99.852955
76.733000;99.853750
76.771000;99.856135
76.809000;99.852955
76.847000;99.852175
76.885000;99.852955
76.923000;99.852955
76.961000;99.855340
77.000000;99.852175
77.038000;99.854545
77.076000;99.854545
77.114000;99.852175
77.152000;99.854545
77.190000;99.855340
77.228000;99.852955
77.266000;99.853750
77.304000;99.853750
77.342000;99.854545
77.380000;99.852955
77.418000;99.854545
77.456000;99.854545
77.495000;99.852955
77.533000;99.852955
77.571000;99.853750
77.609000;99.852175
77.647000;99.853750
77.685000;99.854545
77.723000;99.851380
77.761000;99.854545
77.799000;99.853750
77.837000;99.852175
77.875000;99.852175
77.913000;99.852955
77.951000;99.853750
77.990000;99.852175
78.028000;99.854545
78.066000;99.852175
78.104000;99.854545
78.142000;99.854545
78.180000;99.851380
78.218000;99.852175
78.256000;99.852175
78.294000;99.853750
78.333000;99.850585
78.371000;99.854545
78.409000;99.854545
78.447000;99.853750
78.485000;99.852175
78.523000;99.853750
78.561000;99.852175
78.599000;99.852175
78.637000;99.852955
78.675000;99.853750
78.713000;99.854545
78.751000;99.854545
78.789000;99.854545
78.827000;99.852955
78.866000;99.853750
78.904000;99.853750
78.942000;99.855340
78.980000;99.852955
79.018000;99.852955
79.056000;99.852175
79.094000;99.852175
79.132000;99.855340
79.170000;99.853750
79.208000;99.850585
79.246000;99.852955
79.284000;99.853750
79.323000;99.851380
79.361000;99.852175
79.399000;99.852955
79.437000;99.852955
79.475000;99.852955
79.513000;99.854545
79.551000;99.852955
79.589000;99.853750
79.627000;99.854545
79.665000;99.853750
79.703000;99.852955
79.741000;99.852175
79.779000;99.854545
79.817000;99.852955
79.855000;99.854545
79.894000;99.852955
79.932000;99.851380
79.970000;99.852175
80.008000;99.852955
80.046000;99.856135
80.084000;99.852175
80.122000;99.852955
80.160000;99.856135
80.199000;99.854545
80.237000;99.853750
80.275000;99.852175
80.313000;2.397857
80.351000;100.063098
80.389000;100.032994
80.427000;100.010015
80.465000;100.009220
80.503000;100.017139
80.541000;100.018729
80.580000;100.021099
80.618000;100.018729
80.656000;100.013974
80.694000;100.010015
80.732000;100.007645
80.770000;100.002095
80.808000;99.998135
80.846000;99.992585
80.884000;99.990215
80.922000;99.984666
80.960000;99.983076
80.999000;99.979911
81.037000;99.976746
81.075000;99.973566
81.113000;99.971991
81.151000;99.968826
81.189000;99.963276
81.227000;99.952177
81.265000;99.917333
81.303000;99.880089
81.341000;99.870595
81.379000;99.877719
81.417000;99.888804
81.455000;99.900699
81.494000;99.910193
81.532000;99.918113
81.570000;99.920498
81.608000;99.922868
81.646000;99.922088
81.684000;99.921293
81.722000;99.922868
81.760000;99.920498
81.798000;99.921293
81.836000;99.921293
81.875000;99.920498
81.913000;99.919703
81.951000;99.921293
81.989000;99.922088
82.027000;99.922088
82.065000;99.921293
82.103000;99.920498
82.141000;99.922088
82.179000;99.922868
82.217000;99.922868
82.255000;99.919703
82.294000;99.920498
82.332000;99.922868
82.370000;99.921293
82.408000;99.921293
82.446000;99.921293
82.484000;99.921293
82.522000;99.919703
82.560000;99.918908
82.598000;99.921293
82.636000;99.920498
82.675000;99.919703
82.713000;99.920498
82.751000;99.922088
82.789000;99.921293
82.827000;99.921293
82.865000;99.922088
82.903000;99.922088
82.941000;99.920498
82.979000;99.920498
83.017000;99.919703
83.055000;99.919703
83.093000;99.922088
83.132000;99.921293
83.170000;99.922088
83.208000;99.920498
83.246000;99.921293
83.284000;99.919703
83.322000;99.918113
83.360000;99.918113
83.399000;99.922088
83.437000;99.922088
83.475000;99.918908
83.513000;99.920498
83.551000;99.919703
83.589000;99.919703
83.627000;99.920498
83.665000;99.918908
83.703000;99.918908
83.741000;99.919703
83.779000;99.921293
83.817000;99.921293
83.855000;99.920498
83.893000;99.919703
83.931000;99.918113
83.969000;99.920498
84.007000;99.921293
84.046000;99.918113
84.084000;99.918908
84.122000;99.920498
84.160000;99.918113
84.198000;99.920498
84.236000;99.921293
84.274000;99.918113
84.312000;99.919703
84.350000;99.922088
84.388000;99.919703
84.426000;99.918908
84.464000;99.919703
84.503000;99.919703
84.541000;99.923663
84.579000;99.917333
84.617000;99.919703
84.655000;99.919703
84.693000;99.922868
84.731000;99.920498
84.769000;99.917333
84.807000;99.918113
84.845000;99.918908
84.883000;99.919703
84.921000;99.918908
84.959000;99.918113
84.998000;99.918908
85.036000;99.919703
85.074000;99.919703
85.112000;99.922868
85.150000;99.921293
85.188000;99.920498
85.226000;99.919703
85.264000;99.920498
85.303000;99.919703
85.341000;99.918908
85.379000;99.921293
85.417000;99.920498
85.455000;99.917333
85.493000;99.918908
85.531000;99.921293
85.569000;99.921293
85.607000;99.918908
85.645000;99.919703
85.683000;99.919703
85.721000;99.918908
85.759000;99.918908
85.798000;99.921293
85.836000;99.920498
85.874000;99.922088
85.912000;99.922088
85.950000;99.920498
85.988000;99.920498
86.026000;99.917333
86.064000;99.920498
86.102000;99.921293
86.140000;99.919703
86.178000;99.921293
86.216000;99.918908
86.255000;99.916538
86.293000;99.917333
86.331000;99.920498
86.369000;99.920498
86.407000;99.920498
86.445000;99.920498
86.483000;99.921293
86.521000;99.919703
86.559000;99.919703
86.597000;99.920498
86.635000;99.918113
86.674000;99.919703
86.712000;99.918113
86.750000;99.918908
86.788000;99.921293
86.826000;99.919703
86.864000;99.918113
86.902000;99.918113
86.942000;99.919703
86.980000;99.918908
87.018000;99.919703
87.056000;99.921293
87.095000;99.919703
87.133000;99.918908
87.171000;99.919703
87.209000;99.919703
87.247000;99.918113
87.285000;99.921293
87.323000;99.920498
87.361000;99.918908
87.399000;99.921293
87.437000;99.918113
87.475000;99.918113
87.513000;99.919703
87.551000;99.917333
87.589000;99.918113
87.627000;99.918908
87.666000;99.918113
87.704000;99.918908
87.742000;99.919703
87.780000;99.919703
87.818000;99.919703
87.856000;99.921293
87.894000;99.918113
87.932000;99.920498
87.970000;99.919703
88.008000;99.919703
88.046000;99.917333
88.084000;99.917333
88.123000;99.917333
88.161000;99.918908
88.199000;99.918908
88.237000;99.918908
88.275000;99.919703
88.313000;99.917333
88.351000;99.918908
88.389000;99.917333
88.427000;99.918113
88.465000;99.919703
88.504000;99.919703
88.542000;99.918908
88.580000;99.918908
88.618000;99.918908
88.656000;99.920498
88.694000;99.918908
88.732000;99.918908
88.770000;99.917333
88.808000;99.917333
88.846000;99.919703
88.884000;99.920498
88.923000;99.921293
88.961000;99.920498
88.999000;99.919703
89.037000;99.919703
89.075000;99.918908
89.113000;99.919703
89.151000;99.917333
89.189000;99.918113
89.227000;99.916538
89.265000;99.916538
89.304000;99.916538
89.342000;99.918113
89.380000;99.918113
89.418000;99.918908
89.456000;99.918113
89.494000;99.920498
89.532000;99.918908
89.570000;99.919703
89.608000;99.918113
89.646000;99.918908
89.684000;99.920498
89.722000;99.920498
89.760000;99.920498
89.799000;99.918908
89.837000;99.919703
89.875000;99.919703
89.913000;99.921293
89.951000;99.918908
89.989000;99.918113
90.027000;99.917333
90.065000;99.917333
90.104000;99.918908
90.142000;99.918908
90.180000;99.918908
90.218000;99.919703
90.256000;99.916538
90.294000;99.916538
90.332000;99.918113
90.370000;99.918113
90.408000;99.917333
90.446000;99.918113
90.484000;99.917333
90.522000;99.918113
90.560000;99.919703
90.598000;99.918113
90.636000;99.916538
90.675000;99.919703
90.713000;99.918908
90.751000;99.917333
90.789000;99.918908
90.827000;99.917333
90.865000;99.918113
90.903000;99.918908
90.941000;99.917333
90.979000;99.915743
91.017000;99.915743
91.055000;99.919703
91.093000;99.919703
91.131000;99.915743
91.169000;99.915743
91.208000;99.918908
91.246000;99.916538
91.284000;99.917333
91.322000;99.915743
91.360000;99.918113
91.398000;99.918113
91.436000;99.918113
91.474000;99.918113
91.512000;99.917333
91.550000;99.917333
91.588000;99.918113
91.626000;99.918908
91.664000;99.918908
91.703000;99.916538
91.741000;99.914948
91.779000;99.918908
91.817000;99.918908
91.855000;99.917333
91.893000;99.917333
91.931000;99.917333
91.969000;99.917333
92.007000;99.919703
92.046000;99.918113
92.084000;99.918113
92.122000;99.918908
92.160000;99.917333
92.198000;99.918113
92.236000;99.918113
92.274000;99.918113
92.312000;99.916538
92.350000;99.916538
92.388000;99.918113
92.426000;99.916538
92.464000;99.917333
92.503000;99.917333
92.541000;99.916538
92.579000;99.917333
92.617000;99.918113
92.655000;99.916538
92.693000;99.918908
92.731000;99.918113
92.769000;99.919703
92.807000;99.916538
92.845000;99.916538
92.883000;99.916538
92.922000;99.916538
92.960000;99.917333
92.998000;99.917333
93.036000;99.917333
93.074000;99.917333
93.112000;99.916538
93.150000;99.916538
93.188000;99.914948
93.226000;99.916538
93.264000;99.917333
93.303000;99.918908
93.341000;99.918113
93.379000;99.916538
93.417000;99.916538
93.455000;99.918113
93.493000;99.917333
93.531000;99.916538
93.569000;99.917333
93.607000;99.917333
93.645000;99.917333
93.683000;99.917333
93.721000;99.917333
93.759000;99.917333
93.798000;99.914948
93.836000;99.914948
93.874000;99.917333
93.912000;99.918113
93.950000;99.916538
93.988000;99.915743
94.026000;99.916538
94.064000;99.917333
94.103000;99.917333
94.141000;99.915743
94.179000;99.917333
94.217000;99.915743
94.255000;99.914948
94.293000;99.917333
94.331000;99.918908
94.369000;99.917333
94.407000;99.916538
94.445000;99.915743
94.483000;99.918908
94.521000;99.915743
94.559000;99.916538
94.598000;99.916538
94.636000;99.916538
94.674000;99.914948
94.712000;99.917333
94.750000;99.917333
94.788000;99.915743
94.826000;99.916538
94.864000;99.917333
94.903000;99.918908
94.941000;99.917333
94.979000;99.919703
95.017000;99.918113
95.055000;99.918113
95.093000;99.916538
95.131000;99.918113
95.169000;99.914153
95.207000;99.917333
95.245000;99.917333
95.283000;99.917333
95.321000;96.709731
95.359000;85.769282
95.397000;100.087457
95.435000;100.024864
95.474000;99.993965
95.512000;99.974961
95.550000;99.957532
95.588000;99.939307
95.626000;99.930593
95.664000;99.923468
95.703000;99.919508
95.741000;99.910793
95.779000;99.896529
95.817000;99.881484
95.855000;99.861670
95.893000;99.850585
95.931000;99.845036
95.969000;99.846626
96.008000;99.848996
96.046000;99.855340
96.084000;99.854545
96.122000;99.852175
96.160000;99.854545
96.198000;99.854545
96.236000;99.855340
96.274000;99.853750
96.312000;99.852955
96.350000;99.853750
96.388000;99.854545
96.426000;99.853750
96.464000;99.855340
96.503000;99.855340
96.541000;99.853750
96.579000;99.852955
96.617000;99.852175
96.655000;99.852955
96.693000;99.852175
96.731000;99.856135
96.769000;99.856135
96.807000;99.853750
96.845000;99.851380
96.883000;99.853750
96.921000;99.852955
96.959000;99.855340
96.997000;99.853750
97.036000;99.855340
97.074000;99.856135
97.112000;99.856135
97.150000;99.857710
97.188000;99.856135
97.226000;99.858505
97.264000;99.855340
97.302000;99.855340
97.340000;99.856135
97.378000;99.854545
97.416000;99.854545
97.454000;99.855340
97.492000;99.854545
97.530000;99.852955
97.568000;99.853750
97.607000;99.852175
97.645000;99.852955
97.683000;99.852955
97.721000;99.853750
97.759000;99.853750
97.797000;99.853750
97.835000;99.854545
97.873000;99.855340
97.912000;99.853750
97.950000;99.853750
97.988000;99.852175
98.026000;99.855340
98.064000;99.852175
98.102000;99.851380
98.140000;99.852955
98.178000;99.853750
98.216000;99.854545
98.255000;99.854545
98.293000;99.852175
98.331000;99.852175
98.369000;99.852955
98.407000;99.851380
98.445000;99.852175
98.483000;99.851380
98.521000;99.852955
98.559000;99.854545
98.597000;99.853750
98.635000;99.854545
98.673000;99.852955
98.712000;99.853750
98.750000;99.852955
98.788000;99.855340
98.826000;99.853750
98.864000;99.853750
98.902000;99.852955
98.940000;99.854545
98.978000;99.854545
99.016000;99.855340
99.054000;99.855340
99.092000;99.852955
99.130000;99.854545
99.169000;99.853750
99.207000;99.855340
99.245000;99.852175
99.283000;99.854545
99.321000;99.852175
99.359000;99.855340
99.397000;99.854545
99.435000;99.855340
99.473000;99.854545
99.512000;99.854545
99.550000;99.852175
99.588000;99.849791
99.626000;99.852955
99.664000;99.852175
99.702000;99.852175
99.740000;99.852955
99.778000;99.852175
99.816000;99.854545
99.854000;99.852955
99.892000;99.852175
99.930000;99.853750
99.968000;99.852175
100.007000;99.852955
100.045000;99.852175
100.083000;99.853750
100.121000;99.852175
100.159000;99.852175
100.197000;99.853750
100.235000;99.852955
100.273000;99.854545
100.311000;99.851380
100.349000;99.852955
100.387000;99.853750
100.426000;99.852955
100.464000;99.852175
100.502000;99.851380
100.540000;99.851380
100.578000;99.854545
100.616000;99.852955
100.654000;99.852175
100.692000;99.852955
100.730000;99.853750
100.768000;99.851380
100.806000;99.852175
100.845000;99.853750
100.883000;99.852175
100.921000;99.853750
100.959000;99.852175
100.997000;99.852955
101.035000;99.852955
101.073000;99.852175
101.111000;99.852955
101.149000;99.852955
101.187000;99.854545
101.225000;99.853750
101.263000;99.851380
101.302000;99.853750
101.340000;99.852955
101.378000;99.850585
101.416000;99.851380
101.454000;99.852175
101.492000;99.850585
101.530000;99.853750
101.568000;99.853750
101.606000;99.853750
101.644000;99.853750
101.682000;99.852955
101.720000;99.852955
101.758000;99.852955
101.796000;99.854545
101.834000;99.856930
101.872000;99.852175
101.911000;99.854545
101.949000;99.852175
101.987000;99.853750
102.025000;99.853750
102.063000;99.853750
102.101000;99.852955
102.139000;99.852955
102.177000;99.854545
102.215000;99.852955
102.253000;99.853750
102.291000;99.853750
102.329000;99.853750
102.368000;99.853750
102.406000;99.854545
102.444000;99.853750
102.482000;99.853750
102.520000;99.852955
102.558000;99.852955
102.596000;99.853750
102.634000;99.853750
102.672000;99.852955
102.711000;99.853750
102.749000;99.853750
102.787000;99.854545
102.825000;99.851380
102.863000;99.851380
102.901000;99.854545
102.939000;99.853750
102.977000;99.852955
103.015000;99.852175
103.053000;99.852955
103.091000;99.852955
103.129000;99.852175
103.167000;99.854545
103.205000;99.853750
103.243000;99.853750
103.281000;99.853750
103.319000;99.854545
103.357000;99.853750
103.395000;99.852175
103.434000;99.851380
103.472000;99.850585
103.510000;99.852955
103.548000;99.852175
103.586000;99.852175
103.624000;99.853750
103.662000;99.854545
103.700000;99.852955
103.738000;99.852175
103.777000;99.854545
103.815000;99.854545
103.853000;99.853750
103.891000;99.852175
103.929000;99.852955
103.967000;99.852175
104.005000;99.852955
104.043000;99.852955
104.081000;99.852175
104.119000;99.852175
104.157000;99.852955
104.195000;99.849791
104.233000;99.852955
104.271000;99.852955
104.310000;99.856135
104.348000;99.856930
104.387000;99.854545
104.425000;99.852955
104.464000;99.852955
104.502000;99.853750
104.540000;99.856135
104.578000;99.854545
104.616000;99.853750
104.654000;99.856135
104.692000;99.852175
104.730000;99.856135
104.768000;99.852955
104.806000;99.853750
104.844000;99.854545
104.882000;99.855340
104.920000;99.854545
104.958000;99.852175
104.997000;99.851380
105.035000;99.852175
105.072000;99.850585
105.111000;99.852955
105.149000;99.850585
105.187000;99.852955
105.225000;99.853750
105.263000;99.856135
105.301000;99.852955
105.339000;99.853750
105.377000;99.852175
105.415000;99.852955
105.453000;99.854545
105.491000;99.856135
105.529000;99.854545
105.567000;99.852175
105.606000;99.852175
105.644000;99.853750
105.682000;99.855340
105.720000;99.852955
105.758000;99.850585
105.796000;99.851380
105.834000;99.853750
105.872000;99.854545
105.911000;99.853750
105.949000;99.853750
105.987000;99.856135
106.025000;99.854545
106.063000;99.856135
106.101000;99.852175
106.139000;99.850585
106.177000;99.853750
106.215000;99.852175
106.253000;99.855340
106.291000;99.854545
106.329000;99.852955
106.367000;99.852955
106.405000;99.853750
106.443000;99.852955
106.481000;99.853750
106.520000;99.851380
106.558000;99.852955
106.596000;99.853750
106.634000;99.856135
106.672000;99.852955
106.710000;99.852175
106.748000;99.851380
106.786000;99.852175
106.824000;99.851380
106.862000;99.854545
106.900000;99.852955
106.939000;99.852955
106.977000;99.852955
107.015000;99.852175
107.053000;99.852175
107.091000;99.853750
107.129000;99.853750
107.167000;99.852175
107.205000;99.853750
107.243000;99.852955
107.281000;99.853750
107.319000;99.856930
107.357000;99.852175
107.395000;99.853750
107.433000;99.852955
107.472000;99.854545
107.510000;99.852955
107.548000;99.854545
107.586000;99.854545
107.624000;99.851380
107.662000;99.852175
107.700000;99.853750
107.738000;99.852955
107.776000;99.854545
107.814000;99.852175
107.852000;99.853750
107.890000;99.855340
107.929000;99.852955
107.967000;99.850585
108.005000;99.849791
108.043000;99.854545
108.081000;99.854545
108.119000;99.853750
108.157000;99.854545
108.195000;99.851380
108.233000;99.851380
108.271000;99.853750
108.310000;99.854545
108.348000;99.852175
108.386000;99.852175
108.424000;99.852175
108.462000;99.852175
108.500000;99.852175
108.538000;99.851380
108.576000;99.850585
108.614000;99.850585
108.652000;99.851380
108.690000;99.852955
108.730000;99.852955
108.768000;99.854545
108.806000;99.852175
108.845000;99.853750
108.883000;99.853750
108.921000;99.852955
108.959000;99.852955
108.997000;99.852175
109.035000;99.852175
109.073000;99.852955
109.111000;99.852955
109.149000;99.854545
109.187000;99.855340
109.225000;99.850585
109.263000;99.853750
109.301000;99.853750
109.339000;99.853750
109.378000;99.853750
109.416000;99.852175
109.454000;99.852175
109.492000;99.852955
109.530000;99.851380
109.568000;99.852175
109.606000;99.850585
109.644000;99.853750
109.682000;99.852955
109.720000;99.853750
109.758000;99.852955
109.796000;99.854545
109.834000;99.852955
109.872000;99.851380
109.911000;99.853750
109.949000;99.853750
109.987000;99.853750
110.025000;99.854545
110.063000;99.852955
110.101000;99.851380
110.139000;99.851380
110.177000;99.851380
110.215000;99.852955
110.253000;99.853750
110.292000;99.853750
110.330000;5.100038
110.368000;100.061508
110.406000;100.034569
110.444000;100.010015
110.482000;100.007645
110.520000;100.013180
110.558000;100.017139
110.596000;100.017934
110.634000;100.017139
110.672000;100.012385
110.711000;100.010015
110.749000;100.004465
110.787000;99.998930
110.825000;99.995750
110.863000;99.991790
110.901000;99.989420
110.939000;99.983871
110.977000;99.982281
111.015000;99.978321
111.053000;99.975951
111.091000;99.974361
111.129000;99.970401
111.167000;99.967236
111.205000;99.960891
111.243000;99.950602
111.281000;99.920498
111.319000;99.880089
111.358000;99.868210
111.396000;99.874555
111.434000;99.884049
111.472000;99.895149
111.510000;99.907028
111.548000;99.914948
111.586000;99.918113
111.624000;99.920498
111.663000;99.918113
111.701000;99.918113
111.739000;99.918113
111.777000;99.917333
111.815000;99.918908
111.853000;99.919703
111.891000;99.917333
111.929000;99.918113
111.967000;99.915743
112.005000;99.919703
112.043000;99.918908
112.081000;99.918113
112.119000;99.918113
112.157000;99.918113
112.195000;99.916538
112.234000;99.917333
112.272000;99.916538
112.310000;99.917333
112.348000;99.918908
112.386000;99.918908
112.425000;99.917333
112.463000;99.917333
112.501000;99.917333
112.539000;99.916538
112.577000;99.916538
112.615000;99.918113
112.653000;99.917333
112.691000;99.918908
112.729000;99.919703
112.767000;99.918908
112.806000;99.918908
112.844000;99.917333
112.882000;99.918113
112.920000;99.916538
112.958000;99.916538
112.996000;99.917333
113.034000;99.918113
113.072000;99.919703
113.110000;99.918113
113.148000;99.918908
113.186000;99.920498
113.224000;99.920498
113.262000;99.919703
113.300000;99.917333
113.339000;99.918113
113.377000;99.919703
113.415000;99.920498
113.453000;99.920498
113.491000;99.918908
113.529000;99.918113
113.567000;99.916538
113.605000;99.919703
113.643000;99.918908
113.681000;99.919703
113.719000;99.916538
113.757000;99.916538
113.795000;99.919703
113.833000;99.917333
113.871000;99.919703
113.910000;99.918113
113.948000;99.917333
113.986000;99.917333
114.024000;99.918908
114.062000;99.919703
114.100000;99.918113
114.138000;99.919703
114.176000;99.917333
114.215000;99.920498
114.253000;99.919703
114.291000;99.917333
114.331000;99.918113
114.369000;99.916538
114.407000;99.918113
114.445000;99.919703
114.483000;99.920498
114.521000;99.919703
114.559000;99.916538
114.597000;99.918113
114.635000;99.918908
114.673000;99.919703
114.711000;99.918113
114.749000;99.918113
114.787000;99.918113
114.825000;99.919703
114.864000;99.918113
114.902000;99.918908
114.940000;99.916538
114.979000;99.918113
115.017000;99.916538
115.055000;99.916538
115.093000;99.916538
115.131000;99.916538
115.169000;99.916538
115.207000;99.916538
115.245000;99.915743
115.283000;99.916538
115.321000;99.915743
115.359000;99.916538
115.398000;99.914948
115.436000;99.916538
115.474000;99.917333
115.512000;99.916538
115.552000;99.916538
115.590000;99.917333
115.628000;99.916538
115.666000;99.916538
115.704000;99.917333
115.742000;99.918113
115.780000;99.916538
115.819000;99.917333
115.857000;99.916538
115.895000;99.916538
115.933000;99.914948
115.971000;99.918113
116.009000;99.918908
116.047000;99.918113
116.085000;99.918113
116.123000;99.918113
116.161000;99.917333
116.199000;99.915743
116.237000;99.918113
116.275000;99.916538
116.314000;99.918113
116.352000;99.916538
116.390000;99.914948
116.428000;99.913373
116.466000;99.915743
116.504000;99.917333
116.542000;99.916538
116.580000;99.918113
116.618000;99.915743
116.656000;99.916538
116.694000;99.918113
116.732000;99.917333
116.771000;99.917333
116.809000;99.914948
116.847000;99.916538
116.885000;99.917333
116.923000;99.918113
116.961000;99.918113
116.999000;99.918113
117.037000;99.915743
117.075000;99.915743
117.113000;99.915743
117.151000;99.916538
117.189000;99.918908
117.228000;99.919703
117.266000;99.917333
117.304000;99.916538
117.342000;99.918113
117.380000;99.915743
117.418000;99.918113
117.456000;99.913373
117.494000;99.914153
117.532000;99.914948
117.570000;99.917333
117.609000;99.916538
117.647000;99.917333
117.685000;99.915743
117.723000;99.915743
117.761000;99.915743
117.799000;99.916538
117.837000;99.918113
117.875000;99.916538
117.913000;99.916538
117.951000;99.916538
117.989000;99.916538
118.027000;99.916538
118.065000;99.917333
118.103000;99.918113
118.142000;99.916538
118.180000;99.914153
118.218000;99.914948
118.256000;99.916538
118.294000;99.918113
118.332000;99.917333
118.370000;99.914948
118.408000;99.916538
118.446000;99.918113
118.484000;99.916538
118.522000;99.916538
118.560000;99.915743
118.599000;99.916538
118.637000;99.916538
118.675000;99.918113
118.713000;99.916538
118.751000;99.918113
118.789000;99.917333
118.827000;99.917333
118.865000;99.915743
118.903000;99.917333
118.941000;99.917333
118.979000;99.914153
119.018000;99.914153
119.056000;99.915743
119.094000;99.916538
119.132000;99.915743
119.170000;99.918113
119.208000;99.918113
119.246000;99.914153
119.284000;99.917333
119.322000;99.915743
119.360000;99.916538
119.398000;99.914153
119.437000;99.917333
119.475000;99.919703
119.513000;99.919703
119.551000;99.916538
119.589000;99.912578
119.627000;99.914948
119.665000;99.918113
119.703000;99.919703
119.741000;99.915743
119.779000;99.916538
119.818000;99.918113
119.856000;99.916538
119.894000;99.916538
119.932000;99.918113
119.970000;99.917333
120.008000;99.914948
120.046000;99.914948
120.084000;99.917333
120.122000;99.918113
120.160000;99.915743
120.198000;99.915743
120.236000;99.914948
120.275000;99.916538
120.313000;99.916538
120.351000;99.913373
120.389000;99.917333
120.427000;99.916538
120.465000;99.915743
120.503000;99.916538
120.541000;99.917333
120.579000;99.914948
120.618000;99.915743
120.656000;99.914948
120.694000;99.914153
120.732000;99.914948
120.770000;99.915743
120.808000;99.915743
120.846000;99.917333
120.884000;99.916538
120.922000;99.915743
120.960000;99.917333
120.998000;99.916538
121.036000;99.913373
121.074000;99.914153
121.112000;99.916538
121.150000;99.914948
121.189000;99.916538
121.227000;99.916538
121.265000;99.916538
121.303000;99.915743
121.341000;99.916538
121.379000;99.917333
121.417000;99.916538
121.455000;99.914948
121.493000;99.914153
121.531000;99.913373
121.569000;99.914948
121.607000;99.916538
121.646000;99.914153
121.684000;99.915743
121.722000;99.914948
121.760000;99.914153
121.798000;99.914948
121.836000;99.916538
121.874000;99.914948
121.912000;99.915743
121.950000;99.913373
121.988000;99.913373
122.026000;99.914948
122.064000;99.914948
122.103000;99.914948
122.141000;99.914948
122.179000;99.916538
122.217000;99.918113
122.255000;99.916538
122.293000;99.916538
122.331000;99.917333
122.369000;99.915743
122.407000;99.914153
122.445000;99.915743
122.483000;99.916538
122.521000;99.914948
122.560000;99.915743
122.598000;99.914948
122.636000;99.917333
122.674000;99.916538
122.712000;99.914948
122.750000;99.914153
122.788000;99.915743
122.826000;99.917333
122.864000;99.918113
122.902000;99.916538
122.940000;99.913373
122.978000;99.914948
123.017000;99.915743
123.055000;99.916538
123.093000;99.914948
123.131000;99.914948
123.169000;99.914153
123.207000;99.915743
123.245000;99.914153
123.283000;99.914153
123.321000;99.914948
123.359000;99.915743
123.397000;99.915743
123.435000;99.914153
123.473000;99.915743
123.512000;99.914948
123.550000;99.914948
123.588000;99.914153
123.628000;99.913373
123.666000;99.914153
123.704000;99.915743
123.742000;99.915743
123.780000;99.915743
123.818000;99.914153
123.856000;99.914153
123.894000;99.916538
123.932000;99.914153
123.970000;99.914948
124.008000;99.916538
124.046000;99.914153
124.084000;99.914948
124.122000;99.913373
124.160000;99.915743
124.198000;99.914948
124.236000;99.914153
124.275000;99.914948
124.313000;99.914153
124.351000;99.916538
124.389000;99.914153
124.427000;99.914948
124.465000;99.912578
124.503000;99.912578
124.541000;99.914153
124.579000;99.913373
124.618000;99.914948
124.656000;99.915743
124.694000;99.915743
124.732000;99.916538
124.770000;99.915743
124.808000;99.915743
124.846000;99.913373
124.884000;99.911783
124.922000;99.913373
124.960000;99.912578
124.998000;99.914948
125.036000;99.914153
125.074000;99.912578
125.113000;99.913373
125.151000;99.914948
125.189000;99.913373
125.227000;99.914948
125.265000;99.915743
125.303000;99.915743
125.341000;47.826285
125.379000;100.094582
125.417000;100.037539
125.455000;99.995555
125.494000;99.974961
125.532000;99.959122
125.570000;99.942487
125.608000;99.932977
125.646000;99.925058
125.684000;99.918713
125.722000;99.909998
125.760000;99.899709
125.798000;99.883854
125.836000;99.866425
125.874000;99.850585
125.912000;99.843461
125.950000;99.844241
125.988000;99.845831
126.027000;99.848216
126.065000;99.850585
126.103000;99.852955
126.141000;99.852955
126.179000;99.852955
126.217000;99.849791
126.255000;99.850585
126.293000;99.851380
126.331000;99.848216
126.369000;99.851380
126.407000;99.849791
126.445000;99.849791
126.484000;99.850585
126.522000;99.852175
126.560000;99.850585
126.598000;99.849791
126.636000;99.850585
126.674000;99.849791
126.712000;99.848216
126.750000;99.849791
126.788000;99.853750
126.826000;99.852955
126.864000;99.852175
126.902000;99.852175
126.941000;99.849791
126.979000;99.853750
127.017000;99.852175
127.055000;99.851380
127.093000;99.852955
127.131000;99.852175
127.169000;99.851380
127.207000;99.852175
127.245000;99.851380
127.283000;99.849791
127.322000;99.854545
127.360000;99.854545
127.398000;99.852955
127.436000;99.852175
127.474000;99.852955
127.512000;99.852175
127.550000;99.851380
127.588000;99.852955
127.626000;99.852175
127.664000;99.852175
127.702000;99.851380
127.740000;99.852175
127.778000;99.853750
127.817000;99.852175
127.855000;99.852175
127.893000;99.852175
127.931000;99.850585
127.969000;99.851380
128.007000;99.851380
128.045000;99.851380
128.083000;99.851380
128.121000;99.851380
128.159000;99.852175
128.197000;99.852175
128.235000;99.852175
128.273000;99.852175
128.312000;99.852175
128.350000;99.850585
128.388000;99.851380
128.426000;99.851380
128.464000;99.852955
128.502000;99.850585
128.540000;99.850585
128.578000;99.852955
128.616000;99.856135
128.655000;99.855340
128.693000;99.854545
128.731000;99.852175
128.769000;99.854545
128.807000;99.851380
128.845000;99.849791
128.883000;99.850585
128.921000;99.852175
128.959000;99.851380
128.997000;99.852175
129.035000;99.852955
129.073000;99.851380
129.111000;99.851380
129.150000;99.850585
129.188000;99.849791
129.226000;99.853750
129.264000;99.852175
129.302000;99.851380
129.340000;99.849791
129.378000;99.851380
129.416000;99.849791
129.454000;99.851380
129.492000;99.850585
129.530000;99.852175
129.568000;99.853750
129.606000;99.852175
129.644000;99.851380
129.683000;99.851380
129.721000;99.852175
129.759000;99.852175
129.797000;99.852955
129.835000;99.852175
129.873000;99.851380
129.911000;99.850585
129.949000;99.852175
129.987000;99.852175
130.025000;99.852175
130.063000;99.852955
130.101000;99.852175
130.139000;99.855340
130.177000;99.854545
130.216000;99.854545
130.254000;99.851380
130.292000;99.850585
130.330000;99.851380
130.368000;99.849791
130.406000;99.853750
130.444000;99.848996
130.482000;99.850585
130.520000;99.849791
130.558000;99.850585
130.596000;99.849791
130.634000;99.849791
130.672000;99.848996
130.711000;99.849791
130.749000;99.851380
130.787000;99.850585
130.825000;99.853750
130.863000;99.854545
130.901000;99.851380
130.939000;99.848996
130.977000;99.850585
131.016000;99.850585
131.054000;99.849791
131.092000;99.850585
131.130000;99.852175
131.168000;99.852175
131.206000;99.851380
131.244000;99.851380
131.282000;99.851380
131.320000;99.850585
131.358000;99.853750
131.396000;99.852955
131.434000;99.853750
131.472000;99.851380
131.510000;99.853750
131.548000;99.853750
131.586000;99.850585
131.624000;99.852175
131.662000;99.849791
131.701000;99.850585
131.739000;99.851380
131.777000;99.853750
131.815000;99.852175
131.853000;99.852175
131.891000;99.849791
131.929000;99.852955
131.967000;99.852175
132.005000;99.852175
132.043000;99.852955
132.081000;99.853750
132.119000;99.847421
132.157000;99.851380
132.196000;99.851380
132.234000;99.851380
132.272000;99.851380
132.310000;99.851380
132.348000;99.852175
132.386000;99.853750
132.424000;99.850585
132.462000;99.849791
132.500000;99.851380
132.538000;99.852175
132.576000;99.849791
132.615000;99.852175
132.653000;99.851380
132.691000;99.852955
132.729000;99.853750
132.767000;99.852955
132.805000;99.851380
132.843000;99.851380
132.881000;99.852175
132.919000;99.851380
132.957000;99.852175
132.995000;99.852175
133.033000;99.852955
133.071000;99.850585
133.110000;99.850585
133.148000;99.850585
133.186000;99.850585
133.224000;99.852175
133.262000;99.852955
133.300000;99.850585
133.338000;99.850585
133.376000;99.851380
133.414000;99.854545
133.453000;99.851380
133.491000;99.850585
133.529000;99.852175
133.567000;99.850585
133.605000;99.849791
133.643000;99.851380
133.681000;99.855340
133.719000;99.852955
133.757000;99.852175
133.795000;99.850585
133.833000;99.852175
133.871000;99.853750
133.909000;99.850585
133.947000;99.850585
133.986000;99.852955
134.024000;99.852175
134.062000;99.852175
134.100000;99.851380
134.138000;99.851380
134.176000;99.852955
134.214000;99.849791
134.252000;99.851380
134.290000;99.850585
134.328000;99.852175
134.366000;99.851380
134.404000;99.852175
134.443000;99.851380
134.481000;99.850585
134.519000;99.851380
134.557000;99.850585
134.595000;99.852175
134.633000;99.851380
134.671000;99.851380
134.709000;99.850585
134.747000;99.851380
134.785000;99.851380
134.823000;99.850585
134.862000;99.851380
134.900000;99.852175
134.938000;99.848996
134.976000;99.852175
135.014000;99.849791
135.052000;99.852175
135.090000;99.848996
135.128000;99.852175
135.166000;99.849791
135.204000;99.850585
135.242000;99.849791
135.280000;99.850585
135.319000;99.849791
135.357000;99.849791
135.395000;99.851380
135.433000;99.850585
135.471000;99.851380
135.509000;99.851380
135.547000;99.852175
135.585000;99.855340
135.623000;99.852955
135.661000;99.852175
135.699000;99.851380
135.738000;99.851380
135.776000;99.852175
135.814000;99.848216
135.852000;99.848216
135.890000;99.850585
135.928000;99.849791
135.966000;99.848216
136.004000;99.850585
136.042000;99.851380
136.080000;99.849791
136.119000;99.850585
136.157000;99.852175
136.195000;99.852175
136.233000;99.850585
136.271000;99.850585
136.309000;99.848216
136.347000;99.849791
136.385000;99.848996
136.423000;99.849791
136.461000;99.849791
136.499000;99.849791
136.537000;99.849791
136.575000;99.851380
136.614000;99.850585
136.652000;99.849791
136.690000;99.852955
136.728000;99.851380
136.766000;99.851380
136.804000;99.849791
136.842000;99.850585
136.880000;99.850585
136.918000;99.850585
136.957000;99.852175
136.995000;99.851380
137.033000;99.848996
137.071000;99.849791
137.109000;99.851380
137.147000;99.850585
137.185000;99.852955
137.223000;99.851380
137.261000;99.852175
137.299000;99.849791
137.337000;99.851380
137.375000;99.848996
137.413000;99.848216
137.451000;99.849791
137.489000;99.850585
137.528000;99.848996
137.566000;99.847421
137.604000;99.848996
137.642000;99.850585
137.680000;99.851380
137.718000;99.851380
137.756000;99.848216
137.794000;99.849791
137.832000;99.848996
137.870000;99.849791
137.908000;99.851380
137.946000;99.849791
137.984000;99.850585
138.023000;99.849791
138.061000;99.847421
138.099000;99.849791
138.137000;99.848996
138.175000;99.848996
138.213000;99.849791
138.251000;99.849791
138.289000;99.848996
138.327000;99.847421
138.365000;99.849791
138.403000;99.849791
138.441000;99.848996
138.480000;99.849791
138.518000;99.851380
138.556000;99.849791
138.594000;99.848996
138.632000;99.848996
138.670000;99.850585
138.708000;99.852175
138.746000;99.850585
138.784000;99.852175
138.822000;99.851380
138.860000;99.851380
138.898000;99.850585
138.936000;99.849791
138.975000;99.849791
139.013000;99.850585
139.051000;99.848996
139.089000;99.847421
139.127000;99.849791
139.165000;99.852955
139.203000;99.851380
139.241000;99.850585
139.279000;99.852175
139.318000;99.849791
139.356000;99.848996
139.394000;99.850585
139.432000;99.848996
139.470000;99.848996
139.508000;99.848996
139.546000;99.849791
139.584000;99.850585
139.622000;99.852175
139.660000;99.848996
139.698000;99.849791
139.736000;99.850585
139.774000;99.850585
139.812000;99.849791
139.850000;99.849791
139.889000;99.849791
139.926000;99.851380
139.964000;99.851380
140.003000;99.851380
140.041000;99.849791
140.079000;99.852955
140.117000;99.850585
140.155000;99.851380
140.193000;99.851380
140.231000;99.850585
140.269000;99.848996
140.308000;99.848996
140.346000;11.380547
140.383000;100.056753
140.422000;100.031404
140.460000;100.005260
140.498000;100.006850
140.536000;100.013180
140.574000;100.014769
140.612000;100.016359
140.650000;100.013974
140.688000;100.010810
140.726000;100.006850
140.764000;100.006850
140.802000;100.001300
140.840000;99.997340
140.878000;99.992585
140.917000;99.988625
140.955000;99.984666
140.993000;99.980706
141.031000;99.975951
141.069000;99.975951
141.107000;99.971991
141.145000;99.968826
141.183000;99.964071
141.221000;99.960111
141.259000;99.949807
141.297000;99.921293
141.335000;99.880089
141.373000;99.867415
141.412000;99.869800
141.450000;99.880089
141.488000;99.892764
141.526000;99.903069
141.564000;99.913373
141.602000;99.918113
141.640000;99.918113
141.678000;99.918113
141.716000;99.917333
141.754000;99.918908
141.793000;99.917333
141.831000;99.914948
141.869000;99.917333
141.907000;99.915743
141.945000;99.916538
141.983000;99.914948
142.021000;99.914948
142.059000;99.917333
142.097000;99.914153
142.135000;99.915743
142.173000;99.914153
142.211000;99.917333
142.249000;99.915743
142.288000;99.914948
142.326000;99.915743
142.364000;99.915743
142.402000;99.916538
142.440000;99.915743
142.478000;99.915743
142.516000;99.918113
142.554000;99.918113
142.592000;99.916538
142.630000;99.917333
142.668000;99.916538
142.707000;99.914948
142.745000;99.918113
142.783000;99.919703
142.821000;99.916538
142.859000;99.917333
142.897000;99.916538
142.935000;99.914948
142.973000;99.915743
143.011000;99.917333
143.049000;99.914948
143.087000;99.914153
143.125000;99.914948
143.163000;99.915743
143.201000;99.915743
143.240000;99.916538
143.278000;99.914948
143.316000;99.917333
143.354000;99.914153
143.392000;99.918113
143.430000;99.915743
143.468000;99.916538
143.506000;99.914948
143.544000;99.915743
143.582000;99.913373
143.621000;99.915743
143.659000;99.915743
143.697000;99.913373
143.735000;99.913373
143.773000;99.914948
143.811000;99.917333
143.849000;99.917333
143.887000;99.916538
143.925000;99.914948
143.963000;99.914948
144.001000;99.915743
144.039000;99.914948
144.077000;99.916538
144.116000;99.916538
144.154000;99.916538
144.192000;99.914948
144.230000;99.916538
144.268000;99.918113
144.306000;99.916538
144.344000;99.917333
144.382000;99.916538
144.420000;99.918113
144.459000;99.917333
144.497000;99.914948
144.535000;99.914153
144.573000;99.914153
144.611000;99.914948
144.649000;99.914153
144.687000;99.914153
144.725000;99.915743
144.763000;99.915743
144.801000;99.916538
144.839000;99.917333
144.877000;99.915743
144.915000;99.917333
144.953000;99.916538
144.992000;99.914153
145.030000;99.915743
145.068000;99.916538
145.106000;99.916538
145.144000;99.916538
145.182000;99.913373
145.220000;99.914153
145.258000;99.917333
145.296000;99.915743
145.334000;99.915743
145.373000;99.914948
145.411000;99.914948
145.449000;99.913373
145.487000;99.914948
145.525000;99.916538
145.563000;99.916538
145.601000;99.913373
145.639000;99.915743
145.677000;99.915743
145.715000;99.918113
145.753000;99.914948
145.791000;99.914948
145.830000;99.914948
145.868000;99.915743
145.906000;99.915743
145.944000;99.916538
145.982000;99.913373
146.020000;99.914153
146.058000;99.915743
146.096000;99.918113
146.134000;99.914948
146.172000;99.914948
146.210000;99.914948
146.248000;99.916538
146.287000;99.914948
146.325000;99.916538
146.363000;99.918113
146.401000;99.914948
146.439000;99.914948
146.477000;99.916538
146.515000;99.915743
146.553000;99.915743
146.591000;99.917333
146.629000;99.915743
146.667000;99.915743
146.705000;99.916538
146.743000;99.917333
146.781000;99.917333
146.820000;99.917333
146.858000;99.916538
146.896000;99.914948
146.934000;99.915743
146.972000;99.917333
147.010000;99.914948
147.048000;99.914948
147.086000;99.915743
147.124000;99.916538
147.162000;99.915743
147.201000;99.914948
147.239000;99.915743
147.277000;99.914153
147.315000;99.914948
147.353000;99.916538
147.391000;99.914153
147.429000;99.914948
147.467000;99.914948
147.505000;99.913373
147.543000;99.914948
147.581000;99.914948
147.620000;99.914948
147.658000;99.914153
147.696000;99.914153
147.734000;99.915743
147.772000;99.916538
147.810000;99.914948
147.848000;99.914153
147.886000;99.914948
147.924000;99.914153
147.962000;99.914948
148.000000;99.914948
148.038000;99.915743
148.076000;99.915743
148.115000;99.914948
148.153000;99.914948
148.191000;99.914153
148.229000;99.912578
148.267000;99.913373
148.305000;99.914948
148.343000;99.915743
148.381000;99.914948
148.419000;99.914948
148.458000;99.914948
148.496000;99.917333
148.534000;99.914948
148.572000;99.913373
148.610000;99.914948
148.648000;99.915743
148.686000;99.916538
148.724000;99.914948
148.762000;99.914153
148.800000;99.916538
148.838000;99.914153
148.876000;99.914948
148.914000;99.917333
148.953000;99.915743
148.991000;99.914948
149.029000;99.914948
149.067000;99.914948
149.105000;99.912578
149.143000;99.915743
149.181000;99.915743
149.219000;99.914153
149.257000;99.915743
149.295000;99.916538
149.333000;99.916538
149.371000;99.915743
149.410000;99.914948
149.448000;99.915743
149.486000;99.917333
149.524000;99.917333
149.562000;99.915743
149.600000;99.916538
149.638000;99.914948
149.676000;99.914948
149.714000;99.914948
149.752000;99.914153
149.790000;99.914153
149.828000;99.915743
149.867000;99.915743
149.905000;99.914948
149.943000;99.913373
149.981000;99.912578
150.019000;99.914153
150.057000;99.912578
150.095000;99.914948
150.133000;99.914153
150.171000;99.912578
150.209000;99.913373
150.247000;99.912578
150.285000;99.912578
150.324000;99.915743
150.362000;99.914153
150.400000;99.915743
150.438000;99.913373
150.476000;99.914153
150.514000;99.917333
150.552000;99.915743
150.590000;99.913373
150.628000;99.915743
150.666000;99.912578
150.704000;99.914153
150.742000;99.915743
150.780000;99.916538
150.819000;99.915743
150.857000;99.915743
150.895000;99.914153
150.933000;99.917333
150.971000;99.916538
151.009000;99.914948
151.047000;99.914153
151.085000;99.915743
151.123000;99.916538
151.161000;99.915743
151.200000;99.914153
151.238000;99.913373
151.276000;99.914153
151.314000;99.913373
151.352000;99.914948
151.390000;99.914948
151.428000;99.914153
151.466000;99.914948
151.504000;99.914948
151.542000;99.914948
151.580000;99.914948
151.619000;99.912578
151.657000;99.914153
151.695000;99.912578
151.733000;99.914153
151.771000;99.914153
151.809000;99.915743
151.847000;99.915743
151.885000;99.914153
151.923000;99.914948
151.961000;99.914948
151.999000;99.915743
152.037000;99.915743
152.075000;99.914948
152.114000;99.914153
152.152000;99.913373
152.190000;99.916538
152.228000;99.916538
152.266000;99.916538
152.304000;99.915743
152.342000;99.915743
152.380000;99.914948
152.418000;99.914153
152.457000;99.914948
152.495000;99.918113
152.533000;99.916538
152.571000;99.914948
152.609000;99.916538
152.647000;99.917333
152.685000;99.914153
152.723000;99.914948
152.761000;99.914153
152.800000;99.914153
152.838000;99.912578
152.876000;99.914948
152.914000;99.914948
152.952000;99.913373
152.990000;99.914153
153.028000;99.914948
153.066000;99.913373
153.104000;99.912578
153.142000;99.913373
153.180000;99.913373
153.219000;99.911783
153.257000;99.914153
153.295000;99.914153
153.333000;99.914948
153.371000;99.914153
153.409000;99.914153
153.447000;99.916538
153.486000;99.914948
153.524000;99.913373
153.562000;99.915743
153.600000;99.914948
153.638000;99.914948
153.676000;99.914153
153.714000;99.914948
153.752000;99.913373
153.790000;99.911783
153.828000;99.913373
153.866000;99.914948
153.904000;99.914948
153.942000;99.913373
153.980000;99.912578
154.019000;99.914948
154.057000;99.914948
154.095000;99.914153
154.133000;99.914948
154.171000;99.914153
154.209000;99.913373
154.247000;99.913373
154.285000;99.914948
154.324000;99.914153
154.362000;99.913373
154.400000;99.912578
154.438000;99.911783
154.476000;99.914948
154.514000;99.914153
154.552000;99.912578
154.590000;99.912578
154.628000;99.914153
154.666000;99.912578
154.704000;99.914948
154.742000;99.916538
154.780000;99.914153
154.819000;99.914153
154.857000;99.916538
154.895000;99.914948
154.933000;99.913373
154.971000;99.911783
155.009000;99.912578
155.047000;99.911783
155.085000;99.914948
155.123000;99.914948
155.162000;99.915743
155.200000;99.913373
155.238000;99.910988
155.276000;99.913373
155.314000;2.904298
155.352000;0.005430
155.390000;0.003840
155.428000;0.005430
155.466000;0.005430
155.504000;0.003840
155.542000;0.003840
155.580000;0.004635
155.619000;0.004635
155.657000;0.005430
155.695000;0.004635
155.733000;0.004635
155.771000;0.005430
155.809000;0.004635
155.847000;0.005430
155.885000;0.003840
155.923000;0.005430
155.961000;0.005430
155.999000;0.004635
156.037000;0.005430
156.075000;0.003840
156.114000;0.005430
156.152000;0.004635
156.190000;0.005430
156.228000;0.004635
156.266000;0.004635
156.304000;0.003060
156.342000;0.005430
156.380000;0.004635
156.418000;0.004635
156.456000;0.003840
156.494000;0.005430
156.532000;0.005430
156.570000;0.005430
156.608000;0.005430
156.647000;0.005430
156.684000;0.005430
156.723000;0.004635
156.761000;0.004635
156.799000;0.005430
156.837000;0.004635
156.875000;0.004635
156.913000;0.003840
156.951000;0.003840
156.989000;0.005430
157.027000;0.005430
157.065000;0.004635
157.103000;0.004635
157.141000;0.003060
157.179000;0.003840
157.218000;0.003840
157.256000;0.004635
157.294000;0.004635
157.332000;0.005430
157.370000;0.004635
157.408000;0.004635
157.446000;0.004635
157.484000;0.005430
157.522000;0.005430
157.560000;0.006225
157.598000;0.004635
157.636000;0.005430
157.674000;0.003840
157.712000;0.005430
157.750000;0.004635
157.789000;0.004635
157.827000;0.005430
157.865000;0.004635
157.903000;0.005430
157.941000;0.006225
157.979000;0.004635
158.017000;0.005430
158.055000;0.005430
158.093000;0.006225
158.131000;0.004635
158.169000;0.005430
158.207000;0.005430
158.246000;0.006225
158.284000;0.005430
158.322000;0.006225
158.360000;0.006225
158.398000;0.005430
158.436000;0.004635
158.474000;0.007020
158.512000;0.005430
158.550000;0.006225
158.588000;0.005430
158.627000;0.007020
158.665000;0.006225
158.703000;0.004635
158.741000;0.005430
158.779000;0.004635
158.817000;0.004635
158.855000;0.005430
158.893000;0.003840
158.931000;0.004635
158.969000;0.004635
159.007000;0.005430
159.045000;0.003840
159.083000;0.005430
159.122000;0.005430
159.160000;0.005430
159.198000;0.004635
159.236000;0.004635
159.274000;0.003840
159.312000;0.004635
159.350000;0.005430
159.388000;0.004635
159.426000;0.004635
159.464000;0.005430
159.502000;0.005430
159.540000;0.006225
159.578000;0.004635
159.617000;0.005430
159.655000;0.004635
159.693000;0.004635
159.731000;0.004635
159.769000;0.004635
159.807000;0.005430
159.845000;0.003840
159.883000;0.004635
159.921000;0.004635
159.959000;0.003840
159.997000;0.004635
160.035000;0.004635
160.073000;0.003060
160.111000;0.003060
160.149000;0.004635
160.187000;0.004635
160.225000;0.003840
160.263000;0.003840
160.301000;0.003840
160.339000;0.003060
160.378000;0.003840
160.416000;0.004635
160.454000;0.005430
160.492000;0.004635
160.530000;0.005430
160.568000;0.005430
160.606000;0.003060
160.644000;0.003840
160.682000;0.004635
160.720000;0.003840
160.758000;0.004635
160.796000;0.005430
160.835000;0.003060
160.873000;0.004635
160.911000;0.003840
160.949000;0.003840
160.987000;0.003840
161.025000;0.003840
161.063000;0.004635
161.101000;0.003840
161.139000;0.004635
161.177000;0.004635
161.215000;0.005430
161.253000;0.004635
161.291000;0.004635
161.329000;0.004635
161.367000;0.004635
161.406000;0.005430
161.444000;0.005430
161.482000;0.004635
161.520000;0.005430
161.558000;0.004635
161.596000;0.004635
161.634000;0.004635
161.672000;0.004635
161.710000;0.003840
161.748000;0.004635
161.786000;0.003840
161.824000;0.004635
161.862000;0.004635
161.900000;0.005430
161.938000;0.003840
161.976000;0.004635
162.014000;0.004635
162.052000;0.003840
162.091000;0.004635
162.129000;0.004635
162.167000;0.005430
162.205000;0.004635
162.243000;0.005430
162.281000;0.004635
162.319000;0.003840
162.357000;0.005430
162.395000;0.004635
162.433000;0.003840
162.471000;0.004635
162.509000;0.005430
162.547000;0.004635
162.585000;0.005430
162.623000;0.003840
162.662000;0.004635
162.700000;0.005430
162.738000;0.005430
162.776000;0.005430
162.814000;0.004635
162.852000;0.005430
162.890000;0.004635
162.928000;0.004635
162.966000;0.004635
163.004000;0.005430
163.042000;0.005430
163.080000;0.004635
163.119000;0.005430
163.157000;0.003060
163.195000;0.005430
163.233000;0.004635
163.271000;0.003840
163.309000;0.005430
163.347000;0.003840
163.385000;0.004635
163.423000;0.004635
163.461000;0.003840
163.499000;0.003840
163.537000;0.003840
163.575000;0.003060
163.613000;0.005430
163.651000;0.004635
163.689000;0.005430
163.727000;0.003840
163.765000;0.004635
163.803000;0.005430
163.842000;0.005430
163.880000;0.006225
163.920000;0.007020
163.959000;0.005430
163.997000;0.004635
164.035000;0.005430
164.073000;0.003060
164.111000;0.004635
164.149000;0.004635
164.187000;0.003840
164.225000;0.003840
164.263000;0.006225
164.301000;0.005430
164.340000;0.004635
164.378000;0.004635
164.416000;0.005430
164.454000;0.004635
164.492000;0.004635
164.530000;0.006225
164.568000;0.003840
164.606000;0.005430
164.644000;0.005430
164.682000;0.005430
164.720000;0.006225
164.758000;0.006225
164.796000;0.005430
164.834000;0.006225
164.872000;0.005430
164.911000;0.004635
164.949000;0.004635
164.987000;0.005430
165.025000;0.005430
165.063000;0.004635
165.101000;0.003840
165.139000;0.005430
165.177000;0.003840
165.215000;0.003840
165.253000;0.003840
165.291000;0.003060
165.329000;0.004635
165.367000;0.005430
165.405000;0.004635
165.443000;0.005430
165.481000;0.004635
165.520000;0.004635
165.558000;0.004635
165.596000;0.005430
165.634000;0.005430
165.672000;0.003840
165.710000;0.003840
165.748000;0.003840
165.786000;0.003060
165.825000;0.003840
165.863000;0.003840
165.901000;0.003840
165.939000;0.003840
165.977000;0.004635
166.015000;0.005430
166.053000;0.005430
166.091000;0.006225
166.129000;0.005430
166.167000;0.006225
166.205000;0.007020
166.243000;0.006225
166.282000;0.005430
166.320000;0.007020
166.358000;0.006225
166.396000;0.006225
166.434000;0.005430
166.472000;0.006225
166.510000;0.006225
166.548000;0.007020
166.586000;0.006225
166.624000;0.006225
166.663000;0.004635
166.701000;0.006225
166.739000;0.004635
166.777000;0.005430
166.815000;0.006225
166.853000;0.005430
166.891000;0.005430
166.929000;0.005430
166.967000;0.005430
167.005000;0.005430
167.043000;0.006225
167.081000;0.005430
167.120000;0.006225
167.158000;0.006225
167.196000;0.004635
167.234000;0.004635
167.272000;0.006225
167.310000;0.006225
167.348000;0.004635
167.386000;0.004635
167.424000;0.005430
167.462000;0.005430
167.501000;0.006225
167.539000;0.003840
167.577000;0.006225
167.615000;0.003840
167.653000;0.005430
167.691000;0.003840
167.729000;0.004635
167.767000;0.006225
167.805000;0.004635
167.843000;0.005430
167.881000;0.003840
167.919000;0.004635
167.957000;0.005430
167.995000;0.004635
168.033000;0.005430
168.071000;0.004635
168.109000;0.003840
168.147000;0.004635
168.185000;0.004635
168.224000;0.005430
168.262000;0.005430
168.300000;0.004635
168.338000;0.003840
168.376000;0.003060
168.414000;0.004635
168.452000;0.004635
168.490000;0.004635
168.528000;0.004635
168.566000;0.005430
168.604000;0.004635
168.642000;0.005430
168.680000;0.004635
168.718000;0.005430
168.756000;0.003840
168.795000;0.003840
168.833000;0.005430
168.871000;0.005430
168.909000;0.005430
168.947000;0.004635
168.985000;0.004635
169.023000;0.003840
169.061000;0.003840
169.099000;0.003840
169.137000;0.003840
169.175000;0.004635
169.213000;0.004635
169.251000;0.003840
169.289000;0.004635
169.328000;0.005430
169.366000;0.006225
169.404000;0.005430
169.442000;0.005430
169.480000;0.005430
169.518000;0.005430
169.556000;0.005430
169.594000;0.004635
169.632000;0.003840
169.670000;0.005430
169.708000;0.006225
169.746000;0.006225
169.784000;0.005430
169.823000;0.003060
169.861000;0.003840
169.899000;0.003840
169.937000;0.005430
169.975000;0.003840
170.013000;0.003840
170.051000;0.004635
170.089000;0.004635
170.127000;0.004635
170.165000;0.003840
170.203000;0.005430
170.241000;0.006225
170.279000;0.005430
170.317000;0.005430
170.355000;0.006225
170.393000;0.003840
170.432000;0.005430
170.470000;0.003840
170.508000;0.004635
170.546000;0.004635
170.584000;0.004635
170.622000;0.004635
170.660000;0.005430
170.698000;0.004635
170.736000;0.003840
170.774000;0.004635
170.812000;0.003840
170.850000;0.003840
170.888000;0.004635
170.926000;0.004635
170.964000;0.004635
171.002000;0.003840
171.041000;0.005430
171.079000;0.004635
171.117000;0.004635
171.155000;0.007020
171.193000;0.004635
171.231000;0.005430
171.269000;0.005430
171.307000;0.006225
171.345000;0.007020
171.383000;0.006225
171.422000;0.005430
171.460000;0.004635
171.498000;0.004635
171.536000;0.006225
171.574000;0.004635
171.612000;0.005430
171.650000;0.004635
171.688000;0.004635
171.726000;0.005430
171.764000;0.003840
171.802000;0.003840
171.840000;0.004635
171.878000;0.004635
171.916000;0.005430
171.954000;0.004635
171.992000;0.004635
172.031000;0.005430
172.069000;0.004635
172.107000;0.006225
172.145000;0.005430
172.183000;0.004635
172.221000;0.003840
172.259000;0.004635
172.297000;0.005430
172.336000;0.007020
172.374000;0.007020
172.412000;0.004635
172.450000;0.005430
172.488000;0.004635
172.526000;0.005430
172.564000;0.004635
172.602000;0.005430
172.640000;0.005430
172.678000;0.003840
172.716000;0.005430
172.754000;0.005430
172.792000;0.005430
172.830000;0.005430
172.868000;0.003060
172.906000;0.005430
172.944000;0.003840
172.982000;0.003840
173.021000;0.004635
173.059000;0.005430
173.097000;0.006225
173.135000;0.003840
173.173000;0.004635
173.211000;0.004635
173.249000;0.003840
173.287000;0.004635
173.325000;0.004635
173.363000;0.003840
173.401000;0.004635
173.439000;0.004635
173.477000;0.004635
173.516000;0.005430
173.554000;0.005430
173.592000;0.005430
173.630000;0.004635
173.668000;0.003840
173.706000;0.004635
173.744000;0.005430
173.782000;0.003840
173.820000;0.003840
173.858000;0.004635
173.898000;0.003840
173.936000;0.004635
173.974000;0.004635
174.012000;0.006225
174.050000;0.004635
174.088000;0.005430
174.127000;0.003840
174.165000;0.003840
174.203000;0.003840
174.241000;0.003840
174.279000;0.003840
174.317000;0.004635
174.355000;0.004635
174.393000;0.003840
174.431000;0.003840
174.469000;0.003060
174.507000;0.003840
174.545000;0.004635
174.583000;0.003840
174.622000;0.004635
174.660000;0.004635
174.698000;0.004635
174.736000;0.005430
174.774000;0.005430
174.812000;0.005430
174.850000;0.006225
174.888000;0.006225
174.926000;0.005430
174.964000;0.005430
175.002000;0.005430
175.040000;0.005430
175.078000;0.005430
175.116000;0.006225
175.154000;0.007020
175.192000;0.005430
175.230000;0.006225
175.268000;0.005430
175.306000;0.006225
175.345000;0.005430
175.383000;0.005430
175.421000;0.005430
175.459000;0.004635
175.497000;0.004635
175.535000;0.005430
175.573000;0.005430
175.611000;0.006225
175.649000;0.003840
175.687000;0.005430
175.725000;0.004635
175.763000;0.005430
175.802000;0.004635
175.840000;0.005430
175.878000;0.005430
175.916000;0.004635
175.954000;0.004635
175.992000;0.004635
176.030000;0.006225
176.068000;0.005430
176.106000;0.005430
176.144000;0.006225
176.182000;0.005430
176.221000;0.005430
176.259000;0.006225
176.297000;0.004635
176.335000;0.005430
176.373000;0.005430
176.411000;0.005430
176.449000;0.006225
176.487000;0.006225
176.525000;0.007020
176.563000;0.004635
176.601000;0.006225
176.639000;0.005430
176.677000;0.007020
176.716000;0.005430
176.754000;0.004635
176.792000;0.005430
176.830000;0.005430
176.868000;0.005430
176.906000;0.005430
176.944000;0.004635
176.984000;0.003840
177.022000;0.004635
177.060000;0.006225
177.098000;0.005430
177.136000;0.004635
177.174000;0.005430
177.213000;0.004635
177.251000;0.003840
177.289000;0.005430
177.327000;0.004635
177.365000;0.003840
177.403000;0.006225
177.441000;0.004635
177.479000;0.005430
177.517000;0.005430
177.555000;0.003840
177.595000;0.004635
177.633000;0.005430
177.671000;0.004635
177.709000;0.004635
177.747000;0.005430
177.785000;0.004635
177.824000;0.004635
177.862000;0.004635
177.900000;0.005430
177.938000;0.003840
177.976000;0.003840
178.014000;0.003840
178.052000;0.003840
178.090000;0.005430
178.128000;0.004635
178.166000;0.004635
178.204000;0.006225
178.242000;0.006225
178.280000;0.003840
178.319000;0.005430
178.357000;0.004635
178.395000;0.004635
178.433000;0.004635
178.471000;0.005430
178.509000;0.004635
178.547000;0.003840
178.586000;0.002265
178.624000;0.003840
178.662000;0.004635
178.700000;0.003840
178.738000;0.005430
178.776000;0.004635
178.814000;0.003060
178.852000;0.003840
178.890000;0.003840
178.928000;0.004635
178.966000;0.005430
179.004000;0.004635
179.042000;0.005430
179.080000;0.006225
179.119000;0.005430
179.157000;0.006225
179.195000;0.005430
179.233000;0.005430
179.271000;0.005430
179.309000;0.005430
179.347000;0.005430
179.385000;0.006225
179.423000;0.005430
179.461000;0.005430
179.499000;0.006225
179.537000;0.006225
179.575000;0.006225
179.613000;0.005430
179.651000;0.005430
179.690000;0.004635
179.728000;0.005430
179.766000;0.006225
179.804000;0.005430
179.842000;0.006225
179.880000;0.006225
179.918000;0.005430
179.956000;0.006225
179.994000;0.007815
180.032000;0.007020
180.070000;0.005430
180.108000;0.006225
180.146000;0.005430
180.184000;0.007020
180.222000;0.005430
180.261000;0.006225
180.299000;0.006225
180.337000;0.005430
180.375000;0.005430
180.413000;0.006225
180.451000;0.005430
180.489000;0.007020
180.527000;0.005430
180.565000;0.005430
180.603000;0.005430
180.641000;0.006225
180.680000;0.006225
180.718000;0.006225
180.756000;0.005430
180.794000;0.005430
180.832000;0.005430
180.870000;0.005430
180.908000;0.006225
180.946000;0.007020
180.984000;0.006225
181.022000;0.006225
181.060000;0.007020
181.098000;0.007020
181.136000;0.005430
181.174000;0.006225
181.213000;0.006225
181.251000;0.006225
181.289000;0.004635
181.328000;0.004635
181.366000;0.003840
181.404000;0.003840
181.442000;0.004635
181.480000;0.006225
181.518000;0.005430
181.556000;0.005430
181.594000;0.005430
181.632000;0.003840
181.670000;0.003840
181.708000;0.005430
181.746000;0.003840
181.784000;0.004635
181.822000;0.004635
181.860000;0.003840
181.898000;0.004635
181.936000;0.005430
181.975000;0.004635
182.013000;0.003840
182.051000;0.004635
182.089000;0.005430
182.127000;0.003060
182.165000;0.003060
182.203000;0.003060
182.241000;0.003840
182.279000;0.003060
182.317000;0.003840
182.355000;0.003840
182.393000;0.003060
182.432000;0.003840
182.470000;0.003060
182.508000;0.003060
182.546000;0.003840
182.584000;0.003840
182.622000;0.003060
182.660000;0.001470
182.698000;0.002265
182.736000;0.003060
182.774000;0.002265
182.812000;0.003060
182.850000;0.002265
182.888000;0.003060
182.926000;0.002265
182.964000;0.003060
183.002000;0.003060
183.040000;0.002265
183.078000;0.003060
183.116000;0.003840
183.154000;0.003060
183.192000;0.003060
183.230000;0.002265
183.268000;0.002265
183.307000;0.003840
183.345000;0.003840
183.383000;0.003060
183.421000;0.003840
183.459000;0.003840
183.497000;0.004635
183.535000;0.003840
183.573000;0.003840
183.611000;0.005430
183.649000;0.003840
183.687000;0.004635
183.725000;0.004635
183.764000;0.005430
183.802000;0.003840
183.840000;0.003060
183.878000;0.005430
183.916000;0.004635
183.954000;0.004635
183.992000;0.004635
184.030000;0.003840
184.068000;0.004635
184.106000;0.006225
184.144000;0.004635
184.182000;0.005430
184.220000;0.005430
184.258000;0.005430
184.296000;0.003840
184.335000;0.004635
184.373000;0.005430
184.411000;0.004635
184.449000;0.004635
184.487000;0.005430
184.525000;0.004635
184.563000;0.004635
184.601000;0.003840
184.639000;0.004635
184.677000;0.004635
184.715000;0.005430
184.753000;0.005430
184.791000;0.003840
184.829000;0.003840
184.867000;0.003840
184.905000;0.003060
184.943000;0.005430
184.981000;0.005430
185.020000;0.003060
185.058000;0.003840
185.096000;0.004635
185.134000;0.004635
185.172000;0.005430
185.210000;0.004635
185.248000;0.004635
185.286000;0.004635
185.324000;0.004635
185.362000;0.003840
185.400000;0.004635
185.438000;0.004635
185.476000;0.005430
185.515000;0.006225
185.553000;0.005430
185.591000;0.007020
185.629000;0.006225
185.667000;0.006225
185.705000;0.005430
185.743000;0.005430
185.781000;0.006225
185.819000;0.006225
185.857000;0.005430
185.895000;0.005430
185.934000;0.005430
185.972000;0.005430
186.010000;0.006225
186.048000;0.005430
186.086000;0.005430
186.124000;0.004635
186.162000;0.005430
186.200000;0.005430
186.238000;0.005430
186.277000;0.006225
186.315000;0.005430
186.353000;0.005430
186.391000;0.004635
186.429000;0.004635
186.468000;0.005430
186.506000;0.004635
186.544000;0.003840
186.582000;0.004635
186.620000;0.005430
186.658000;0.006225
186.696000;0.005430
186.734000;0.006225
186.772000;0.005430
186.810000;0.006225
186.848000;0.006225
186.886000;0.005430
186.924000;0.004635
186.963000;0.004635
187.001000;0.005430
187.039000;0.004635
187.077000;0.003840
187.115000;0.004635
187.153000;0.004635
187.191000;0.005430
187.229000;0.004635
187.267000;0.004635
187.305000;0.004635
187.343000;0.003840
187.381000;0.005430
187.419000;0.003840
187.457000;0.004635
187.495000;0.005430
187.534000;0.005430
187.572000;0.003840
187.610000;0.003840
187.648000;0.004635
187.686000;0.003060
187.724000;0.005430
187.762000;0.004635
187.800000;0.004635
187.838000;0.005430
187.876000;0.004635
187.915000;0.003840
187.952000;0.003840
187.990000;0.004635
188.028000;0.004635
188.067000;0.003840
188.105000;0.004635
188.143000;0.003840
188.181000;0.004635
188.219000;0.004635
188.257000;0.005430
188.295000;0.005430
188.333000;0.004635
188.371000;0.004635
188.409000;0.004635
188.447000;0.005430
188.485000;0.003840
188.523000;0.004635
188.561000;0.004635
188.599000;0.003840
188.638000;0.005430
188.676000;0.003840
188.714000;0.005430
188.752000;0.004635
188.790000;0.005430
188.828000;0.005430
188.866000;0.003840
188.904000;0.004635
188.942000;0.004635
188.980000;0.006225
189.018000;0.006225
189.056000;0.005430
189.094000;0.004635
189.132000;0.005430
189.170000;0.004635
189.208000;0.005430
189.246000;0.005430
189.284000;0.005430
189.322000;0.006225
189.360000;0.005430
189.398000;0.005430
189.437000;0.005430
189.475000;0.004635
189.513000;0.005430
189.551000;0.005430
189.589000;0.006225
189.627000;0.005430
189.665000;0.005430
189.703000;0.007020
189.741000;0.006225
189.779000;0.003840
189.818000;0.005430
189.856000;0.005430
189.894000;0.005430
189.932000;0.006225
189.970000;0.006225
190.008000;0.004635
190.046000;0.005430
190.084000;0.004635
190.122000;0.004635
190.160000;0.004635
190.198000;0.005430
190.236000;0.005430
190.274000;0.006225
190.312000;0.005430
190.351000;0.004635
190.389000;0.004635
190.427000;0.005430
190.465000;0.003840
190.503000;0.003840
190.541000;0.003840
190.579000;0.004635
190.617000;0.003840
190.655000;0.004635
190.693000;0.004635
190.731000;0.004635
190.769000;0.004635
190.807000;0.004635
190.845000;0.003060
190.883000;0.003840
190.921000;0.003840
190.959000;0.004635
190.997000;0.003840
191.036000;0.003840
191.074000;0.004635
191.112000;0.005430
191.150000;0.003840
191.188000;0.004635
191.226000;0.003060
191.264000;0.004635
191.302000;0.004635
191.340000;0.004635
191.378000;0.004635
191.416000;0.005430
191.454000;0.005430
191.492000;0.003840
191.530000;0.004635
191.568000;0.005430
191.606000;0.005430
191.645000;0.004635
191.683000;0.004635
191.721000;0.005430
191.759000;0.006225
191.797000;0.004635
191.835000;0.003060
191.873000;0.004635
191.911000;0.003060
191.949000;0.004635
191.987000;0.003840
192.025000;0.005430
192.063000;0.003840
192.101000;0.004635
192.140000;0.003840
192.178000;0.003840
192.216000;0.003060
192.254000;0.003840
192.292000;0.003840
192.330000;0.003840
192.368000;0.003060
192.406000;0.003840
192.445000;0.004635
192.483000;0.005430
192.521000;0.003840
192.559000;0.004635
192.597000;0.004635
192.635000;0.005430
192.673000;0.006225
192.711000;0.006225
192.749000;0.004635
192.787000;0.007020
192.825000;0.004635
192.863000;0.005430
192.901000;0.003840
192.940000;0.004635
192.978000;0.006225
193.016000;0.005430
193.054000;0.004635
193.092000;0.004635
193.130000;0.003060
193.168000;0.003840
193.206000;0.004635
193.244000;0.005430
193.282000;0.003840
193.320000;0.004635
193.358000;0.003840
193.396000;0.003060
193.434000;0.003060
193.473000;0.003060
193.511000;0.004635
193.549000;0.003840
193.587000;0.003060
193.625000;0.005430
193.663000;0.003840
193.702000;0.005430
193.740000;0.005430
193.778000;0.004635
193.816000;0.005430
193.854000;0.005430
193.892000;0.006225
193.930000;0.005430
193.968000;0.004635
194.006000;0.006225
194.045000;0.004635
194.083000;0.004635
194.121000;0.004635
194.159000;0.005430
194.197000;0.005430
194.235000;0.004635
194.273000;0.005430
194.311000;0.004635
194.349000;0.004635
194.387000;0.003840
194.425000;0.003060
194.463000;0.004635
194.501000;0.003840
194.540000;0.005430
194.578000;0.004635
194.616000;0.004635
194.654000;0.005430
194.692000;0.005430
194.730000;0.003840
194.768000;0.004635
194.806000;0.003840
194.845000;0.004635
194.883000;0.003840
